Created as New Dataset,Sample 036 By Administrator Date Monday, February 10 2020
cm-1,A
6000.00,1.0470
5999.00,1.0462
5998.00,1.0455
5997.00,1.0454
5996.00,1.0457
5995.00,1.0459
5994.00,1.0459
5993.00,1.0458
5992.00,1.0457
5991.00,1.0458
5990.00,1.0459
5989.00,1.0461
5988.00,1.0463
5987.00,1.0464
5986.00,1.0462
5985.00,1.0460
5984.00,1.0458
5983.00,1.0457
5982.00,1.0457
5981.00,1.0457
5980.00,1.0457
5979.00,1.0457
5978.00,1.0457
5977.00,1.0457
5976.00,1.0457
5975.00,1.0456
5974.00,1.0456
5973.00,1.0457
5972.00,1.0459
5971.00,1.0460
5970.00,1.0460
5969.00,1.0460
5968.00,1.0461
5967.00,1.0461
5966.00,1.0460
5965.00,1.0459
5964.00,1.0458
5963.00,1.0458
5962.00,1.0458
5961.00,1.0458
5960.00,1.0458
5959.00,1.0459
5958.00,1.0458
5957.00,1.0457
5956.00,1.0456
5955.00,1.0455
5954.00,1.0454
5953.00,1.0453
5952.00,1.0453
5951.00,1.0454
5950.00,1.0455
5949.00,1.0455
5948.00,1.0454
5947.00,1.0454
5946.00,1.0454
5945.00,1.0453
5944.00,1.0453
5943.00,1.0453
5942.00,1.0454
5941.00,1.0455
5940.00,1.0457
5939.00,1.0458
5938.00,1.0458
5937.00,1.0457
5936.00,1.0457
5935.00,1.0456
5934.00,1.0455
5933.00,1.0455
5932.00,1.0455
5931.00,1.0456
5930.00,1.0457
5929.00,1.0457
5928.00,1.0458
5927.00,1.0457
5926.00,1.0455
5925.00,1.0452
5924.00,1.0449
5923.00,1.0448
5922.00,1.0447
5921.00,1.0448
5920.00,1.0450
5919.00,1.0453
5918.00,1.0457
5917.00,1.0458
5916.00,1.0458
5915.00,1.0457
5914.00,1.0456
5913.00,1.0455
5912.00,1.0455
5911.00,1.0454
5910.00,1.0454
5909.00,1.0454
5908.00,1.0455
5907.00,1.0456
5906.00,1.0456
5905.00,1.0454
5904.00,1.0453
5903.00,1.0452
5902.00,1.0451
5901.00,1.0451
5900.00,1.0451
5899.00,1.0453
5898.00,1.0455
5897.00,1.0457
5896.00,1.0459
5895.00,1.0459
5894.00,1.0457
5893.00,1.0455
5892.00,1.0453
5891.00,1.0452
5890.00,1.0452
5889.00,1.0452
5888.00,1.0453
5887.00,1.0454
5886.00,1.0454
5885.00,1.0454
5884.00,1.0454
5883.00,1.0455
5882.00,1.0455
5881.00,1.0453
5880.00,1.0450
5879.00,1.0447
5878.00,1.0446
5877.00,1.0445
5876.00,1.0446
5875.00,1.0448
5874.00,1.0451
5873.00,1.0454
5872.00,1.0456
5871.00,1.0455
5870.00,1.0453
5869.00,1.0451
5868.00,1.0450
5867.00,1.0450
5866.00,1.0451
5865.00,1.0451
5864.00,1.0451
5863.00,1.0451
5862.00,1.0450
5861.00,1.0449
5860.00,1.0448
5859.00,1.0447
5858.00,1.0446
5857.00,1.0447
5856.00,1.0448
5855.00,1.0450
5854.00,1.0451
5853.00,1.0451
5852.00,1.0450
5851.00,1.0449
5850.00,1.0448
5849.00,1.0446
5848.00,1.0446
5847.00,1.0447
5846.00,1.0449
5845.00,1.0451
5844.00,1.0453
5843.00,1.0454
5842.00,1.0454
5841.00,1.0454
5840.00,1.0454
5839.00,1.0454
5838.00,1.0453
5837.00,1.0452
5836.00,1.0452
5835.00,1.0452
5834.00,1.0451
5833.00,1.0450
5832.00,1.0450
5831.00,1.0450
5830.00,1.0450
5829.00,1.0450
5828.00,1.0450
5827.00,1.0450
5826.00,1.0451
5825.00,1.0451
5824.00,1.0452
5823.00,1.0453
5822.00,1.0455
5821.00,1.0458
5820.00,1.0460
5819.00,1.0463
5818.00,1.0465
5817.00,1.0466
5816.00,1.0466
5815.00,1.0463
5814.00,1.0460
5813.00,1.0456
5812.00,1.0453
5811.00,1.0451
5810.00,1.0450
5809.00,1.0449
5808.00,1.0449
5807.00,1.0450
5806.00,1.0449
5805.00,1.0448
5804.00,1.0447
5803.00,1.0446
5802.00,1.0446
5801.00,1.0445
5800.00,1.0445
5799.00,1.0446
5798.00,1.0447
5797.00,1.0448
5796.00,1.0448
5795.00,1.0449
5794.00,1.0450
5793.00,1.0450
5792.00,1.0450
5791.00,1.0451
5790.00,1.0453
5789.00,1.0455
5788.00,1.0456
5787.00,1.0455
5786.00,1.0454
5785.00,1.0451
5784.00,1.0448
5783.00,1.0446
5782.00,1.0445
5781.00,1.0446
5780.00,1.0448
5779.00,1.0451
5778.00,1.0452
5777.00,1.0452
5776.00,1.0451
5775.00,1.0450
5774.00,1.0449
5773.00,1.0448
5772.00,1.0448
5771.00,1.0448
5770.00,1.0449
5769.00,1.0448
5768.00,1.0448
5767.00,1.0448
5766.00,1.0449
5765.00,1.0451
5764.00,1.0453
5763.00,1.0456
5762.00,1.0457
5761.00,1.0456
5760.00,1.0455
5759.00,1.0453
5758.00,1.0453
5757.00,1.0453
5756.00,1.0453
5755.00,1.0452
5754.00,1.0452
5753.00,1.0451
5752.00,1.0450
5751.00,1.0449
5750.00,1.0449
5749.00,1.0449
5748.00,1.0450
5747.00,1.0451
5746.00,1.0452
5745.00,1.0451
5744.00,1.0449
5743.00,1.0448
5742.00,1.0446
5741.00,1.0445
5740.00,1.0445
5739.00,1.0446
5738.00,1.0447
5737.00,1.0450
5736.00,1.0452
5735.00,1.0454
5734.00,1.0455
5733.00,1.0454
5732.00,1.0452
5731.00,1.0450
5730.00,1.0448
5729.00,1.0446
5728.00,1.0446
5727.00,1.0446
5726.00,1.0446
5725.00,1.0447
5724.00,1.0449
5723.00,1.0449
5722.00,1.0449
5721.00,1.0448
5720.00,1.0447
5719.00,1.0447
5718.00,1.0447
5717.00,1.0447
5716.00,1.0447
5715.00,1.0447
5714.00,1.0446
5713.00,1.0446
5712.00,1.0445
5711.00,1.0444
5710.00,1.0444
5709.00,1.0444
5708.00,1.0445
5707.00,1.0447
5706.00,1.0447
5705.00,1.0448
5704.00,1.0449
5703.00,1.0451
5702.00,1.0451
5701.00,1.0452
5700.00,1.0452
5699.00,1.0452
5698.00,1.0451
5697.00,1.0450
5696.00,1.0448
5695.00,1.0448
5694.00,1.0448
5693.00,1.0448
5692.00,1.0449
5691.00,1.0449
5690.00,1.0449
5689.00,1.0447
5688.00,1.0446
5687.00,1.0445
5686.00,1.0444
5685.00,1.0445
5684.00,1.0446
5683.00,1.0448
5682.00,1.0449
5681.00,1.0449
5680.00,1.0448
5679.00,1.0447
5678.00,1.0446
5677.00,1.0446
5676.00,1.0447
5675.00,1.0449
5674.00,1.0450
5673.00,1.0450
5672.00,1.0450
5671.00,1.0449
5670.00,1.0448
5669.00,1.0446
5668.00,1.0445
5667.00,1.0444
5666.00,1.0444
5665.00,1.0444
5664.00,1.0444
5663.00,1.0445
5662.00,1.0445
5661.00,1.0445
5660.00,1.0445
5659.00,1.0445
5658.00,1.0446
5657.00,1.0447
5656.00,1.0448
5655.00,1.0449
5654.00,1.0450
5653.00,1.0450
5652.00,1.0449
5651.00,1.0448
5650.00,1.0446
5649.00,1.0446
5648.00,1.0446
5647.00,1.0446
5646.00,1.0445
5645.00,1.0445
5644.00,1.0445
5643.00,1.0446
5642.00,1.0447
5641.00,1.0448
5640.00,1.0449
5639.00,1.0450
5638.00,1.0449
5637.00,1.0448
5636.00,1.0447
5635.00,1.0447
5634.00,1.0446
5633.00,1.0446
5632.00,1.0447
5631.00,1.0447
5630.00,1.0446
5629.00,1.0444
5628.00,1.0444
5627.00,1.0445
5626.00,1.0446
5625.00,1.0447
5624.00,1.0448
5623.00,1.0449
5622.00,1.0449
5621.00,1.0448
5620.00,1.0446
5619.00,1.0445
5618.00,1.0446
5617.00,1.0446
5616.00,1.0446
5615.00,1.0447
5614.00,1.0447
5613.00,1.0447
5612.00,1.0447
5611.00,1.0447
5610.00,1.0446
5609.00,1.0446
5608.00,1.0445
5607.00,1.0445
5606.00,1.0444
5605.00,1.0443
5604.00,1.0443
5603.00,1.0444
5602.00,1.0445
5601.00,1.0447
5600.00,1.0449
5599.00,1.0450
5598.00,1.0449
5597.00,1.0448
5596.00,1.0446
5595.00,1.0444
5594.00,1.0442
5593.00,1.0441
5592.00,1.0440
5591.00,1.0441
5590.00,1.0442
5589.00,1.0443
5588.00,1.0444
5587.00,1.0445
5586.00,1.0445
5585.00,1.0446
5584.00,1.0446
5583.00,1.0446
5582.00,1.0446
5581.00,1.0445
5580.00,1.0445
5579.00,1.0445
5578.00,1.0445
5577.00,1.0445
5576.00,1.0445
5575.00,1.0445
5574.00,1.0444
5573.00,1.0443
5572.00,1.0443
5571.00,1.0444
5570.00,1.0444
5569.00,1.0445
5568.00,1.0446
5567.00,1.0447
5566.00,1.0446
5565.00,1.0444
5564.00,1.0442
5563.00,1.0441
5562.00,1.0440
5561.00,1.0439
5560.00,1.0439
5559.00,1.0440
5558.00,1.0442
5557.00,1.0443
5556.00,1.0443
5555.00,1.0444
5554.00,1.0444
5553.00,1.0443
5552.00,1.0442
5551.00,1.0442
5550.00,1.0441
5549.00,1.0441
5548.00,1.0442
5547.00,1.0443
5546.00,1.0444
5545.00,1.0443
5544.00,1.0443
5543.00,1.0442
5542.00,1.0442
5541.00,1.0443
5540.00,1.0444
5539.00,1.0446
5538.00,1.0446
5537.00,1.0446
5536.00,1.0446
5535.00,1.0445
5534.00,1.0443
5533.00,1.0442
5532.00,1.0442
5531.00,1.0442
5530.00,1.0442
5529.00,1.0442
5528.00,1.0442
5527.00,1.0443
5526.00,1.0445
5525.00,1.0446
5524.00,1.0447
5523.00,1.0448
5522.00,1.0448
5521.00,1.0448
5520.00,1.0447
5519.00,1.0446
5518.00,1.0446
5517.00,1.0446
5516.00,1.0447
5515.00,1.0448
5514.00,1.0448
5513.00,1.0448
5512.00,1.0446
5511.00,1.0445
5510.00,1.0444
5509.00,1.0443
5508.00,1.0442
5507.00,1.0443
5506.00,1.0443
5505.00,1.0442
5504.00,1.0441
5503.00,1.0440
5502.00,1.0440
5501.00,1.0440
5500.00,1.0440
5499.00,1.0440
5498.00,1.0440
5497.00,1.0440
5496.00,1.0441
5495.00,1.0441
5494.00,1.0440
5493.00,1.0440
5492.00,1.0439
5491.00,1.0439
5490.00,1.0439
5489.00,1.0438
5488.00,1.0438
5487.00,1.0439
5486.00,1.0440
5485.00,1.0440
5484.00,1.0441
5483.00,1.0442
5482.00,1.0442
5481.00,1.0441
5480.00,1.0440
5479.00,1.0440
5478.00,1.0440
5477.00,1.0439
5476.00,1.0437
5475.00,1.0436
5474.00,1.0436
5473.00,1.0436
5472.00,1.0437
5471.00,1.0437
5470.00,1.0437
5469.00,1.0438
5468.00,1.0438
5467.00,1.0439
5466.00,1.0439
5465.00,1.0438
5464.00,1.0438
5463.00,1.0438
5462.00,1.0437
5461.00,1.0436
5460.00,1.0435
5459.00,1.0436
5458.00,1.0437
5457.00,1.0437
5456.00,1.0437
5455.00,1.0438
5454.00,1.0438
5453.00,1.0439
5452.00,1.0438
5451.00,1.0437
5450.00,1.0435
5449.00,1.0434
5448.00,1.0434
5447.00,1.0433
5446.00,1.0431
5445.00,1.0430
5444.00,1.0432
5443.00,1.0435
5442.00,1.0437
5441.00,1.0438
5440.00,1.0440
5439.00,1.0442
5438.00,1.0444
5437.00,1.0443
5436.00,1.0440
5435.00,1.0437
5434.00,1.0435
5433.00,1.0435
5432.00,1.0435
5431.00,1.0436
5430.00,1.0435
5429.00,1.0435
5428.00,1.0435
5427.00,1.0437
5426.00,1.0438
5425.00,1.0439
5424.00,1.0439
5423.00,1.0440
5422.00,1.0441
5421.00,1.0441
5420.00,1.0441
5419.00,1.0440
5418.00,1.0440
5417.00,1.0439
5416.00,1.0438
5415.00,1.0436
5414.00,1.0435
5413.00,1.0434
5412.00,1.0435
5411.00,1.0436
5410.00,1.0436
5409.00,1.0436
5408.00,1.0437
5407.00,1.0438
5406.00,1.0438
5405.00,1.0438
5404.00,1.0438
5403.00,1.0438
5402.00,1.0438
5401.00,1.0437
5400.00,1.0436
5399.00,1.0435
5398.00,1.0434
5397.00,1.0434
5396.00,1.0434
5395.00,1.0434
5394.00,1.0434
5393.00,1.0433
5392.00,1.0434
5391.00,1.0435
5390.00,1.0435
5389.00,1.0435
5388.00,1.0435
5387.00,1.0435
5386.00,1.0434
5385.00,1.0434
5384.00,1.0435
5383.00,1.0435
5382.00,1.0434
5381.00,1.0434
5380.00,1.0435
5379.00,1.0436
5378.00,1.0437
5377.00,1.0437
5376.00,1.0437
5375.00,1.0438
5374.00,1.0437
5373.00,1.0436
5372.00,1.0436
5371.00,1.0437
5370.00,1.0437
5369.00,1.0436
5368.00,1.0436
5367.00,1.0436
5366.00,1.0436
5365.00,1.0436
5364.00,1.0436
5363.00,1.0436
5362.00,1.0436
5361.00,1.0435
5360.00,1.0435
5359.00,1.0435
5358.00,1.0435
5357.00,1.0436
5356.00,1.0437
5355.00,1.0436
5354.00,1.0435
5353.00,1.0434
5352.00,1.0433
5351.00,1.0432
5350.00,1.0431
5349.00,1.0430
5348.00,1.0430
5347.00,1.0432
5346.00,1.0432
5345.00,1.0431
5344.00,1.0430
5343.00,1.0429
5342.00,1.0430
5341.00,1.0430
5340.00,1.0430
5339.00,1.0431
5338.00,1.0432
5337.00,1.0433
5336.00,1.0435
5335.00,1.0436
5334.00,1.0436
5333.00,1.0436
5332.00,1.0436
5331.00,1.0437
5330.00,1.0438
5329.00,1.0438
5328.00,1.0437
5327.00,1.0436
5326.00,1.0436
5325.00,1.0438
5324.00,1.0440
5323.00,1.0441
5322.00,1.0442
5321.00,1.0443
5320.00,1.0443
5319.00,1.0443
5318.00,1.0442
5317.00,1.0440
5316.00,1.0440
5315.00,1.0439
5314.00,1.0439
5313.00,1.0439
5312.00,1.0439
5311.00,1.0440
5310.00,1.0441
5309.00,1.0440
5308.00,1.0440
5307.00,1.0439
5306.00,1.0440
5305.00,1.0441
5304.00,1.0442
5303.00,1.0443
5302.00,1.0444
5301.00,1.0444
5300.00,1.0443
5299.00,1.0443
5298.00,1.0443
5297.00,1.0443
5296.00,1.0442
5295.00,1.0442
5294.00,1.0442
5293.00,1.0442
5292.00,1.0440
5291.00,1.0439
5290.00,1.0439
5289.00,1.0439
5288.00,1.0440
5287.00,1.0441
5286.00,1.0442
5285.00,1.0441
5284.00,1.0441
5283.00,1.0442
5282.00,1.0443
5281.00,1.0443
5280.00,1.0443
5279.00,1.0443
5278.00,1.0443
5277.00,1.0442
5276.00,1.0441
5275.00,1.0441
5274.00,1.0442
5273.00,1.0443
5272.00,1.0444
5271.00,1.0446
5270.00,1.0446
5269.00,1.0445
5268.00,1.0444
5267.00,1.0443
5266.00,1.0442
5265.00,1.0441
5264.00,1.0441
5263.00,1.0442
5262.00,1.0443
5261.00,1.0444
5260.00,1.0444
5259.00,1.0444
5258.00,1.0444
5257.00,1.0444
5256.00,1.0444
5255.00,1.0445
5254.00,1.0446
5253.00,1.0447
5252.00,1.0448
5251.00,1.0449
5250.00,1.0448
5249.00,1.0447
5248.00,1.0446
5247.00,1.0447
5246.00,1.0448
5245.00,1.0448
5244.00,1.0448
5243.00,1.0450
5242.00,1.0452
5241.00,1.0454
5240.00,1.0456
5239.00,1.0457
5238.00,1.0458
5237.00,1.0458
5236.00,1.0457
5235.00,1.0457
5234.00,1.0457
5233.00,1.0457
5232.00,1.0458
5231.00,1.0458
5230.00,1.0457
5229.00,1.0455
5228.00,1.0454
5227.00,1.0453
5226.00,1.0453
5225.00,1.0454
5224.00,1.0455
5223.00,1.0457
5222.00,1.0459
5221.00,1.0460
5220.00,1.0460
5219.00,1.0461
5218.00,1.0462
5217.00,1.0463
5216.00,1.0464
5215.00,1.0464
5214.00,1.0464
5213.00,1.0463
5212.00,1.0461
5211.00,1.0460
5210.00,1.0460
5209.00,1.0460
5208.00,1.0460
5207.00,1.0460
5206.00,1.0461
5205.00,1.0462
5204.00,1.0463
5203.00,1.0465
5202.00,1.0466
5201.00,1.0467
5200.00,1.0468
5199.00,1.0469
5198.00,1.0470
5197.00,1.0471
5196.00,1.0471
5195.00,1.0471
5194.00,1.0471
5193.00,1.0470
5192.00,1.0470
5191.00,1.0470
5190.00,1.0470
5189.00,1.0470
5188.00,1.0471
5187.00,1.0472
5186.00,1.0472
5185.00,1.0472
5184.00,1.0472
5183.00,1.0473
5182.00,1.0474
5181.00,1.0475
5180.00,1.0476
5179.00,1.0477
5178.00,1.0478
5177.00,1.0479
5176.00,1.0480
5175.00,1.0480
5174.00,1.0481
5173.00,1.0480
5172.00,1.0480
5171.00,1.0479
5170.00,1.0479
5169.00,1.0480
5168.00,1.0480
5167.00,1.0481
5166.00,1.0482
5165.00,1.0483
5164.00,1.0483
5163.00,1.0484
5162.00,1.0484
5161.00,1.0485
5160.00,1.0485
5159.00,1.0486
5158.00,1.0486
5157.00,1.0486
5156.00,1.0487
5155.00,1.0487
5154.00,1.0488
5153.00,1.0489
5152.00,1.0490
5151.00,1.0490
5150.00,1.0491
5149.00,1.0492
5148.00,1.0492
5147.00,1.0493
5146.00,1.0493
5145.00,1.0494
5144.00,1.0494
5143.00,1.0494
5142.00,1.0493
5141.00,1.0493
5140.00,1.0494
5139.00,1.0494
5138.00,1.0495
5137.00,1.0497
5136.00,1.0498
5135.00,1.0499
5134.00,1.0499
5133.00,1.0498
5132.00,1.0497
5131.00,1.0496
5130.00,1.0495
5129.00,1.0494
5128.00,1.0493
5127.00,1.0494
5126.00,1.0495
5125.00,1.0496
5124.00,1.0498
5123.00,1.0500
5122.00,1.0502
5121.00,1.0502
5120.00,1.0503
5119.00,1.0503
5118.00,1.0504
5117.00,1.0504
5116.00,1.0505
5115.00,1.0507
5114.00,1.0508
5113.00,1.0508
5112.00,1.0508
5111.00,1.0507
5110.00,1.0506
5109.00,1.0505
5108.00,1.0504
5107.00,1.0504
5106.00,1.0504
5105.00,1.0505
5104.00,1.0505
5103.00,1.0506
5102.00,1.0507
5101.00,1.0507
5100.00,1.0508
5099.00,1.0508
5098.00,1.0509
5097.00,1.0509
5096.00,1.0509
5095.00,1.0510
5094.00,1.0510
5093.00,1.0511
5092.00,1.0511
5091.00,1.0511
5090.00,1.0511
5089.00,1.0511
5088.00,1.0511
5087.00,1.0511
5086.00,1.0511
5085.00,1.0511
5084.00,1.0512
5083.00,1.0513
5082.00,1.0514
5081.00,1.0514
5080.00,1.0514
5079.00,1.0514
5078.00,1.0514
5077.00,1.0514
5076.00,1.0514
5075.00,1.0514
5074.00,1.0514
5073.00,1.0514
5072.00,1.0514
5071.00,1.0515
5070.00,1.0516
5069.00,1.0516
5068.00,1.0516
5067.00,1.0515
5066.00,1.0515
5065.00,1.0515
5064.00,1.0515
5063.00,1.0517
5062.00,1.0518
5061.00,1.0519
5060.00,1.0519
5059.00,1.0519
5058.00,1.0518
5057.00,1.0518
5056.00,1.0518
5055.00,1.0519
5054.00,1.0520
5053.00,1.0520
5052.00,1.0520
5051.00,1.0520
5050.00,1.0519
5049.00,1.0519
5048.00,1.0519
5047.00,1.0519
5046.00,1.0519
5045.00,1.0519
5044.00,1.0519
5043.00,1.0520
5042.00,1.0521
5041.00,1.0521
5040.00,1.0522
5039.00,1.0522
5038.00,1.0521
5037.00,1.0521
5036.00,1.0521
5035.00,1.0521
5034.00,1.0522
5033.00,1.0522
5032.00,1.0521
5031.00,1.0521
5030.00,1.0521
5029.00,1.0521
5028.00,1.0522
5027.00,1.0523
5026.00,1.0524
5025.00,1.0525
5024.00,1.0525
5023.00,1.0524
5022.00,1.0524
5021.00,1.0523
5020.00,1.0523
5019.00,1.0523
5018.00,1.0524
5017.00,1.0524
5016.00,1.0524
5015.00,1.0524
5014.00,1.0524
5013.00,1.0523
5012.00,1.0522
5011.00,1.0522
5010.00,1.0522
5009.00,1.0522
5008.00,1.0522
5007.00,1.0522
5006.00,1.0523
5005.00,1.0523
5004.00,1.0524
5003.00,1.0525
5002.00,1.0524
5001.00,1.0524
5000.00,1.0523
4999.00,1.0523
4998.00,1.0524
4997.00,1.0524
4996.00,1.0525
4995.00,1.0526
4994.00,1.0526
4993.00,1.0526
4992.00,1.0525
4991.00,1.0525
4990.00,1.0525
4989.00,1.0525
4988.00,1.0525
4987.00,1.0526
4986.00,1.0527
4985.00,1.0527
4984.00,1.0526
4983.00,1.0526
4982.00,1.0525
4981.00,1.0523
4980.00,1.0522
4979.00,1.0522
4978.00,1.0522
4977.00,1.0522
4976.00,1.0523
4975.00,1.0523
4974.00,1.0523
4973.00,1.0524
4972.00,1.0524
4971.00,1.0524
4970.00,1.0524
4969.00,1.0524
4968.00,1.0524
4967.00,1.0524
4966.00,1.0524
4965.00,1.0524
4964.00,1.0525
4963.00,1.0526
4962.00,1.0526
4961.00,1.0526
4960.00,1.0526
4959.00,1.0526
4958.00,1.0525
4957.00,1.0525
4956.00,1.0525
4955.00,1.0526
4954.00,1.0526
4953.00,1.0526
4952.00,1.0526
4951.00,1.0525
4950.00,1.0524
4949.00,1.0523
4948.00,1.0523
4947.00,1.0523
4946.00,1.0524
4945.00,1.0526
4944.00,1.0527
4943.00,1.0528
4942.00,1.0528
4941.00,1.0527
4940.00,1.0526
4939.00,1.0524
4938.00,1.0524
4937.00,1.0523
4936.00,1.0523
4935.00,1.0524
4934.00,1.0524
4933.00,1.0524
4932.00,1.0524
4931.00,1.0524
4930.00,1.0525
4929.00,1.0525
4928.00,1.0526
4927.00,1.0526
4926.00,1.0525
4925.00,1.0525
4924.00,1.0524
4923.00,1.0524
4922.00,1.0523
4921.00,1.0522
4920.00,1.0522
4919.00,1.0522
4918.00,1.0521
4917.00,1.0521
4916.00,1.0521
4915.00,1.0522
4914.00,1.0522
4913.00,1.0523
4912.00,1.0523
4911.00,1.0523
4910.00,1.0523
4909.00,1.0523
4908.00,1.0523
4907.00,1.0522
4906.00,1.0522
4905.00,1.0522
4904.00,1.0521
4903.00,1.0521
4902.00,1.0521
4901.00,1.0521
4900.00,1.0521
4899.00,1.0521
4898.00,1.0521
4897.00,1.0520
4896.00,1.0520
4895.00,1.0519
4894.00,1.0519
4893.00,1.0519
4892.00,1.0519
4891.00,1.0519
4890.00,1.0519
4889.00,1.0519
4888.00,1.0518
4887.00,1.0518
4886.00,1.0518
4885.00,1.0518
4884.00,1.0517
4883.00,1.0517
4882.00,1.0516
4881.00,1.0514
4880.00,1.0512
4879.00,1.0511
4878.00,1.0510
4877.00,1.0510
4876.00,1.0512
4875.00,1.0513
4874.00,1.0515
4873.00,1.0516
4872.00,1.0517
4871.00,1.0517
4870.00,1.0517
4869.00,1.0517
4868.00,1.0517
4867.00,1.0517
4866.00,1.0517
4865.00,1.0517
4864.00,1.0517
4863.00,1.0517
4862.00,1.0516
4861.00,1.0516
4860.00,1.0516
4859.00,1.0517
4858.00,1.0517
4857.00,1.0517
4856.00,1.0517
4855.00,1.0516
4854.00,1.0516
4853.00,1.0516
4852.00,1.0516
4851.00,1.0516
4850.00,1.0516
4849.00,1.0516
4848.00,1.0516
4847.00,1.0516
4846.00,1.0515
4845.00,1.0514
4844.00,1.0513
4843.00,1.0513
4842.00,1.0512
4841.00,1.0512
4840.00,1.0512
4839.00,1.0512
4838.00,1.0512
4837.00,1.0512
4836.00,1.0513
4835.00,1.0513
4834.00,1.0512
4833.00,1.0511
4832.00,1.0511
4831.00,1.0510
4830.00,1.0510
4829.00,1.0511
4828.00,1.0511
4827.00,1.0510
4826.00,1.0510
4825.00,1.0509
4824.00,1.0508
4823.00,1.0508
4822.00,1.0508
4821.00,1.0508
4820.00,1.0508
4819.00,1.0508
4818.00,1.0509
4817.00,1.0509
4816.00,1.0509
4815.00,1.0508
4814.00,1.0507
4813.00,1.0505
4812.00,1.0504
4811.00,1.0503
4810.00,1.0503
4809.00,1.0503
4808.00,1.0503
4807.00,1.0503
4806.00,1.0503
4805.00,1.0503
4804.00,1.0503
4803.00,1.0502
4802.00,1.0501
4801.00,1.0500
4800.00,1.0499
4799.00,1.0499
4798.00,1.0499
4797.00,1.0499
4796.00,1.0499
4795.00,1.0499
4794.00,1.0499
4793.00,1.0498
4792.00,1.0497
4791.00,1.0496
4790.00,1.0495
4789.00,1.0494
4788.00,1.0493
4787.00,1.0493
4786.00,1.0493
4785.00,1.0493
4784.00,1.0493
4783.00,1.0494
4782.00,1.0494
4781.00,1.0494
4780.00,1.0494
4779.00,1.0494
4778.00,1.0494
4777.00,1.0493
4776.00,1.0492
4775.00,1.0492
4774.00,1.0492
4773.00,1.0492
4772.00,1.0492
4771.00,1.0491
4770.00,1.0490
4769.00,1.0488
4768.00,1.0487
4767.00,1.0487
4766.00,1.0487
4765.00,1.0487
4764.00,1.0487
4763.00,1.0487
4762.00,1.0487
4761.00,1.0485
4760.00,1.0484
4759.00,1.0483
4758.00,1.0482
4757.00,1.0481
4756.00,1.0480
4755.00,1.0478
4754.00,1.0478
4753.00,1.0477
4752.00,1.0477
4751.00,1.0476
4750.00,1.0476
4749.00,1.0476
4748.00,1.0475
4747.00,1.0475
4746.00,1.0475
4745.00,1.0474
4744.00,1.0473
4743.00,1.0473
4742.00,1.0472
4741.00,1.0471
4740.00,1.0471
4739.00,1.0470
4738.00,1.0468
4737.00,1.0467
4736.00,1.0466
4735.00,1.0465
4734.00,1.0464
4733.00,1.0464
4732.00,1.0463
4731.00,1.0463
4730.00,1.0464
4729.00,1.0463
4728.00,1.0463
4727.00,1.0462
4726.00,1.0461
4725.00,1.0461
4724.00,1.0460
4723.00,1.0460
4722.00,1.0460
4721.00,1.0460
4720.00,1.0460
4719.00,1.0459
4718.00,1.0459
4717.00,1.0458
4716.00,1.0458
4715.00,1.0458
4714.00,1.0457
4713.00,1.0457
4712.00,1.0458
4711.00,1.0458
4710.00,1.0458
4709.00,1.0459
4708.00,1.0459
4707.00,1.0459
4706.00,1.0459
4705.00,1.0459
4704.00,1.0460
4703.00,1.0460
4702.00,1.0461
4701.00,1.0462
4700.00,1.0463
4699.00,1.0463
4698.00,1.0463
4697.00,1.0462
4696.00,1.0460
4695.00,1.0458
4694.00,1.0457
4693.00,1.0456
4692.00,1.0455
4691.00,1.0456
4690.00,1.0456
4689.00,1.0456
4688.00,1.0455
4687.00,1.0454
4686.00,1.0453
4685.00,1.0452
4684.00,1.0452
4683.00,1.0452
4682.00,1.0452
4681.00,1.0452
4680.00,1.0452
4679.00,1.0452
4678.00,1.0451
4677.00,1.0450
4676.00,1.0450
4675.00,1.0449
4674.00,1.0449
4673.00,1.0449
4672.00,1.0450
4671.00,1.0450
4670.00,1.0451
4669.00,1.0451
4668.00,1.0451
4667.00,1.0451
4666.00,1.0450
4665.00,1.0450
4664.00,1.0449
4663.00,1.0449
4662.00,1.0449
4661.00,1.0449
4660.00,1.0449
4659.00,1.0450
4658.00,1.0450
4657.00,1.0450
4656.00,1.0449
4655.00,1.0449
4654.00,1.0449
4653.00,1.0448
4652.00,1.0448
4651.00,1.0448
4650.00,1.0448
4649.00,1.0447
4648.00,1.0448
4647.00,1.0448
4646.00,1.0449
4645.00,1.0449
4644.00,1.0448
4643.00,1.0448
4642.00,1.0448
4641.00,1.0449
4640.00,1.0449
4639.00,1.0450
4638.00,1.0450
4637.00,1.0450
4636.00,1.0450
4635.00,1.0450
4634.00,1.0450
4633.00,1.0450
4632.00,1.0449
4631.00,1.0449
4630.00,1.0448
4629.00,1.0448
4628.00,1.0447
4627.00,1.0448
4626.00,1.0448
4625.00,1.0448
4624.00,1.0449
4623.00,1.0449
4622.00,1.0448
4621.00,1.0447
4620.00,1.0447
4619.00,1.0447
4618.00,1.0448
4617.00,1.0449
4616.00,1.0450
4615.00,1.0450
4614.00,1.0450
4613.00,1.0450
4612.00,1.0450
4611.00,1.0450
4610.00,1.0450
4609.00,1.0449
4608.00,1.0449
4607.00,1.0449
4606.00,1.0449
4605.00,1.0449
4604.00,1.0449
4603.00,1.0450
4602.00,1.0450
4601.00,1.0450
4600.00,1.0449
4599.00,1.0449
4598.00,1.0448
4597.00,1.0447
4596.00,1.0447
4595.00,1.0447
4594.00,1.0448
4593.00,1.0448
4592.00,1.0449
4591.00,1.0449
4590.00,1.0449
4589.00,1.0448
4588.00,1.0448
4587.00,1.0448
4586.00,1.0448
4585.00,1.0448
4584.00,1.0448
4583.00,1.0449
4582.00,1.0449
4581.00,1.0450
4580.00,1.0449
4579.00,1.0449
4578.00,1.0448
4577.00,1.0448
4576.00,1.0447
4575.00,1.0448
4574.00,1.0448
4573.00,1.0448
4572.00,1.0449
4571.00,1.0449
4570.00,1.0449
4569.00,1.0450
4568.00,1.0450
4567.00,1.0450
4566.00,1.0450
4565.00,1.0449
4564.00,1.0450
4563.00,1.0450
4562.00,1.0450
4561.00,1.0449
4560.00,1.0449
4559.00,1.0448
4558.00,1.0448
4557.00,1.0447
4556.00,1.0447
4555.00,1.0447
4554.00,1.0447
4553.00,1.0447
4552.00,1.0448
4551.00,1.0449
4550.00,1.0449
4549.00,1.0449
4548.00,1.0448
4547.00,1.0447
4546.00,1.0447
4545.00,1.0446
4544.00,1.0446
4543.00,1.0446
4542.00,1.0446
4541.00,1.0446
4540.00,1.0446
4539.00,1.0446
4538.00,1.0446
4537.00,1.0446
4536.00,1.0445
4535.00,1.0445
4534.00,1.0446
4533.00,1.0446
4532.00,1.0446
4531.00,1.0446
4530.00,1.0446
4529.00,1.0446
4528.00,1.0446
4527.00,1.0446
4526.00,1.0446
4525.00,1.0446
4524.00,1.0447
4523.00,1.0447
4522.00,1.0447
4521.00,1.0447
4520.00,1.0447
4519.00,1.0446
4518.00,1.0445
4517.00,1.0444
4516.00,1.0443
4515.00,1.0443
4514.00,1.0443
4513.00,1.0443
4512.00,1.0444
4511.00,1.0444
4510.00,1.0445
4509.00,1.0445
4508.00,1.0445
4507.00,1.0445
4506.00,1.0444
4505.00,1.0444
4504.00,1.0444
4503.00,1.0444
4502.00,1.0444
4501.00,1.0444
4500.00,1.0444
4499.00,1.0445
4498.00,1.0446
4497.00,1.0446
4496.00,1.0446
4495.00,1.0445
4494.00,1.0445
4493.00,1.0444
4492.00,1.0444
4491.00,1.0444
4490.00,1.0445
4489.00,1.0445
4488.00,1.0446
4487.00,1.0446
4486.00,1.0446
4485.00,1.0446
4484.00,1.0445
4483.00,1.0445
4482.00,1.0444
4481.00,1.0444
4480.00,1.0444
4479.00,1.0444
4478.00,1.0445
4477.00,1.0445
4476.00,1.0445
4475.00,1.0445
4474.00,1.0444
4473.00,1.0444
4472.00,1.0444
4471.00,1.0443
4470.00,1.0443
4469.00,1.0443
4468.00,1.0444
4467.00,1.0445
4466.00,1.0445
4465.00,1.0445
4464.00,1.0445
4463.00,1.0445
4462.00,1.0445
4461.00,1.0445
4460.00,1.0445
4459.00,1.0445
4458.00,1.0445
4457.00,1.0445
4456.00,1.0445
4455.00,1.0445
4454.00,1.0445
4453.00,1.0445
4452.00,1.0445
4451.00,1.0446
4450.00,1.0446
4449.00,1.0446
4448.00,1.0446
4447.00,1.0446
4446.00,1.0446
4445.00,1.0446
4444.00,1.0446
4443.00,1.0445
4442.00,1.0444
4441.00,1.0443
4440.00,1.0443
4439.00,1.0444
4438.00,1.0444
4437.00,1.0444
4436.00,1.0445
4435.00,1.0445
4434.00,1.0444
4433.00,1.0444
4432.00,1.0444
4431.00,1.0444
4430.00,1.0444
4429.00,1.0443
4428.00,1.0443
4427.00,1.0443
4426.00,1.0443
4425.00,1.0443
4424.00,1.0443
4423.00,1.0443
4422.00,1.0443
4421.00,1.0443
4420.00,1.0443
4419.00,1.0444
4418.00,1.0444
4417.00,1.0445
4416.00,1.0445
4415.00,1.0446
4414.00,1.0446
4413.00,1.0446
4412.00,1.0445
4411.00,1.0445
4410.00,1.0445
4409.00,1.0444
4408.00,1.0444
4407.00,1.0444
4406.00,1.0444
4405.00,1.0443
4404.00,1.0443
4403.00,1.0444
4402.00,1.0444
4401.00,1.0444
4400.00,1.0444
4399.00,1.0444
4398.00,1.0444
4397.00,1.0444
4396.00,1.0444
4395.00,1.0445
4394.00,1.0445
4393.00,1.0445
4392.00,1.0445
4391.00,1.0445
4390.00,1.0445
4389.00,1.0445
4388.00,1.0446
4387.00,1.0446
4386.00,1.0446
4385.00,1.0447
4384.00,1.0447
4383.00,1.0448
4382.00,1.0448
4381.00,1.0447
4380.00,1.0447
4379.00,1.0446
4378.00,1.0446
4377.00,1.0447
4376.00,1.0448
4375.00,1.0449
4374.00,1.0449
4373.00,1.0449
4372.00,1.0449
4371.00,1.0449
4370.00,1.0449
4369.00,1.0449
4368.00,1.0449
4367.00,1.0448
4366.00,1.0448
4365.00,1.0448
4364.00,1.0448
4363.00,1.0449
4362.00,1.0449
4361.00,1.0449
4360.00,1.0449
4359.00,1.0449
4358.00,1.0449
4357.00,1.0449
4356.00,1.0449
4355.00,1.0449
4354.00,1.0449
4353.00,1.0449
4352.00,1.0449
4351.00,1.0450
4350.00,1.0450
4349.00,1.0451
4348.00,1.0451
4347.00,1.0451
4346.00,1.0451
4345.00,1.0450
4344.00,1.0450
4343.00,1.0451
4342.00,1.0451
4341.00,1.0452
4340.00,1.0452
4339.00,1.0453
4338.00,1.0453
4337.00,1.0453
4336.00,1.0454
4335.00,1.0454
4334.00,1.0454
4333.00,1.0453
4332.00,1.0452
4331.00,1.0452
4330.00,1.0452
4329.00,1.0453
4328.00,1.0454
4327.00,1.0454
4326.00,1.0454
4325.00,1.0454
4324.00,1.0453
4323.00,1.0453
4322.00,1.0453
4321.00,1.0453
4320.00,1.0454
4319.00,1.0454
4318.00,1.0455
4317.00,1.0454
4316.00,1.0453
4315.00,1.0452
4314.00,1.0452
4313.00,1.0451
4312.00,1.0451
4311.00,1.0452
4310.00,1.0453
4309.00,1.0454
4308.00,1.0455
4307.00,1.0456
4306.00,1.0456
4305.00,1.0456
4304.00,1.0455
4303.00,1.0455
4302.00,1.0454
4301.00,1.0454
4300.00,1.0455
4299.00,1.0455
4298.00,1.0456
4297.00,1.0456
4296.00,1.0457
4295.00,1.0457
4294.00,1.0457
4293.00,1.0457
4292.00,1.0456
4291.00,1.0456
4290.00,1.0456
4289.00,1.0455
4288.00,1.0455
4287.00,1.0455
4286.00,1.0456
4285.00,1.0457
4284.00,1.0458
4283.00,1.0458
4282.00,1.0458
4281.00,1.0458
4280.00,1.0458
4279.00,1.0459
4278.00,1.0460
4277.00,1.0460
4276.00,1.0460
4275.00,1.0460
4274.00,1.0460
4273.00,1.0460
4272.00,1.0460
4271.00,1.0460
4270.00,1.0459
4269.00,1.0459
4268.00,1.0459
4267.00,1.0459
4266.00,1.0459
4265.00,1.0459
4264.00,1.0460
4263.00,1.0460
4262.00,1.0460
4261.00,1.0460
4260.00,1.0460
4259.00,1.0460
4258.00,1.0461
4257.00,1.0462
4256.00,1.0464
4255.00,1.0466
4254.00,1.0467
4253.00,1.0468
4252.00,1.0467
4251.00,1.0466
4250.00,1.0465
4249.00,1.0463
4248.00,1.0462
4247.00,1.0461
4246.00,1.0461
4245.00,1.0461
4244.00,1.0461
4243.00,1.0462
4242.00,1.0462
4241.00,1.0462
4240.00,1.0461
4239.00,1.0461
4238.00,1.0461
4237.00,1.0462
4236.00,1.0463
4235.00,1.0463
4234.00,1.0463
4233.00,1.0464
4232.00,1.0463
4231.00,1.0463
4230.00,1.0462
4229.00,1.0462
4228.00,1.0461
4227.00,1.0461
4226.00,1.0462
4225.00,1.0462
4224.00,1.0461
4223.00,1.0461
4222.00,1.0461
4221.00,1.0461
4220.00,1.0461
4219.00,1.0462
4218.00,1.0462
4217.00,1.0462
4216.00,1.0461
4215.00,1.0461
4214.00,1.0461
4213.00,1.0461
4212.00,1.0461
4211.00,1.0461
4210.00,1.0461
4209.00,1.0461
4208.00,1.0461
4207.00,1.0461
4206.00,1.0461
4205.00,1.0461
4204.00,1.0461
4203.00,1.0461
4202.00,1.0461
4201.00,1.0461
4200.00,1.0461
4199.00,1.0461
4198.00,1.0461
4197.00,1.0461
4196.00,1.0461
4195.00,1.0462
4194.00,1.0462
4193.00,1.0462
4192.00,1.0462
4191.00,1.0462
4190.00,1.0462
4189.00,1.0461
4188.00,1.0461
4187.00,1.0460
4186.00,1.0460
4185.00,1.0460
4184.00,1.0461
4183.00,1.0462
4182.00,1.0462
4181.00,1.0463
4180.00,1.0463
4179.00,1.0463
4178.00,1.0463
4177.00,1.0463
4176.00,1.0462
4175.00,1.0462
4174.00,1.0462
4173.00,1.0462
4172.00,1.0462
4171.00,1.0463
4170.00,1.0463
4169.00,1.0463
4168.00,1.0463
4167.00,1.0463
4166.00,1.0463
4165.00,1.0462
4164.00,1.0462
4163.00,1.0462
4162.00,1.0462
4161.00,1.0462
4160.00,1.0462
4159.00,1.0462
4158.00,1.0462
4157.00,1.0461
4156.00,1.0460
4155.00,1.0460
4154.00,1.0460
4153.00,1.0459
4152.00,1.0459
4151.00,1.0460
4150.00,1.0460
4149.00,1.0461
4148.00,1.0461
4147.00,1.0461
4146.00,1.0460
4145.00,1.0460
4144.00,1.0459
4143.00,1.0459
4142.00,1.0459
4141.00,1.0459
4140.00,1.0459
4139.00,1.0459
4138.00,1.0459
4137.00,1.0459
4136.00,1.0459
4135.00,1.0459
4134.00,1.0459
4133.00,1.0458
4132.00,1.0457
4131.00,1.0457
4130.00,1.0459
4129.00,1.0462
4128.00,1.0465
4127.00,1.0467
4126.00,1.0467
4125.00,1.0464
4124.00,1.0461
4123.00,1.0459
4122.00,1.0458
4121.00,1.0457
4120.00,1.0457
4119.00,1.0458
4118.00,1.0458
4117.00,1.0459
4116.00,1.0460
4115.00,1.0461
4114.00,1.0462
4113.00,1.0462
4112.00,1.0461
4111.00,1.0459
4110.00,1.0458
4109.00,1.0456
4108.00,1.0455
4107.00,1.0454
4106.00,1.0455
4105.00,1.0455
4104.00,1.0456
4103.00,1.0456
4102.00,1.0456
4101.00,1.0456
4100.00,1.0455
4099.00,1.0455
4098.00,1.0455
4097.00,1.0455
4096.00,1.0455
4095.00,1.0455
4094.00,1.0456
4093.00,1.0456
4092.00,1.0456
4091.00,1.0456
4090.00,1.0456
4089.00,1.0456
4088.00,1.0456
4087.00,1.0456
4086.00,1.0456
4085.00,1.0456
4084.00,1.0456
4083.00,1.0456
4082.00,1.0456
4081.00,1.0456
4080.00,1.0456
4079.00,1.0456
4078.00,1.0455
4077.00,1.0455
4076.00,1.0455
4075.00,1.0455
4074.00,1.0456
4073.00,1.0456
4072.00,1.0455
4071.00,1.0455
4070.00,1.0455
4069.00,1.0455
4068.00,1.0455
4067.00,1.0455
4066.00,1.0455
4065.00,1.0454
4064.00,1.0454
4063.00,1.0454
4062.00,1.0453
4061.00,1.0453
4060.00,1.0453
4059.00,1.0453
4058.00,1.0453
4057.00,1.0453
4056.00,1.0452
4055.00,1.0452
4054.00,1.0452
4053.00,1.0452
4052.00,1.0451
4051.00,1.0451
4050.00,1.0450
4049.00,1.0450
4048.00,1.0451
4047.00,1.0451
4046.00,1.0452
4045.00,1.0452
4044.00,1.0451
4043.00,1.0450
4042.00,1.0450
4041.00,1.0449
4040.00,1.0449
4039.00,1.0449
4038.00,1.0449
4037.00,1.0449
4036.00,1.0449
4035.00,1.0449
4034.00,1.0448
4033.00,1.0448
4032.00,1.0448
4031.00,1.0448
4030.00,1.0448
4029.00,1.0448
4028.00,1.0448
4027.00,1.0448
4026.00,1.0448
4025.00,1.0447
4024.00,1.0447
4023.00,1.0447
4022.00,1.0447
4021.00,1.0447
4020.00,1.0447
4019.00,1.0447
4018.00,1.0448
4017.00,1.0448
4016.00,1.0447
4015.00,1.0447
4014.00,1.0447
4013.00,1.0447
4012.00,1.0446
4011.00,1.0445
4010.00,1.0445
4009.00,1.0444
4008.00,1.0444
4007.00,1.0445
4006.00,1.0445
4005.00,1.0444
4004.00,1.0443
4003.00,1.0441
4002.00,1.0440
4001.00,1.0441
4000.00,1.0442
3999.00,1.0444
3998.00,1.0444
3997.00,1.0444
3996.00,1.0442
3995.00,1.0441
3994.00,1.0441
3993.00,1.0441
3992.00,1.0442
3991.00,1.0443
3990.00,1.0443
3989.00,1.0443
3988.00,1.0443
3987.00,1.0441
3986.00,1.0441
3985.00,1.0440
3984.00,1.0440
3983.00,1.0440
3982.00,1.0441
3981.00,1.0441
3980.00,1.0441
3979.00,1.0440
3978.00,1.0440
3977.00,1.0439
3976.00,1.0439
3975.00,1.0438
3974.00,1.0438
3973.00,1.0438
3972.00,1.0438
3971.00,1.0438
3970.00,1.0438
3969.00,1.0438
3968.00,1.0437
3967.00,1.0437
3966.00,1.0437
3965.00,1.0436
3964.00,1.0435
3963.00,1.0434
3962.00,1.0434
3961.00,1.0433
3960.00,1.0433
3959.00,1.0433
3958.00,1.0433
3957.00,1.0433
3956.00,1.0433
3955.00,1.0433
3954.00,1.0433
3953.00,1.0433
3952.00,1.0432
3951.00,1.0432
3950.00,1.0431
3949.00,1.0430
3948.00,1.0430
3947.00,1.0430
3946.00,1.0431
3945.00,1.0430
3944.00,1.0430
3943.00,1.0429
3942.00,1.0429
3941.00,1.0429
3940.00,1.0428
3939.00,1.0426
3938.00,1.0425
3937.00,1.0425
3936.00,1.0424
3935.00,1.0423
3934.00,1.0423
3933.00,1.0422
3932.00,1.0422
3931.00,1.0422
3930.00,1.0422
3929.00,1.0422
3928.00,1.0422
3927.00,1.0423
3926.00,1.0423
3925.00,1.0423
3924.00,1.0423
3923.00,1.0422
3922.00,1.0421
3921.00,1.0419
3920.00,1.0417
3919.00,1.0416
3918.00,1.0415
3917.00,1.0414
3916.00,1.0414
3915.00,1.0415
3914.00,1.0415
3913.00,1.0414
3912.00,1.0414
3911.00,1.0414
3910.00,1.0414
3909.00,1.0414
3908.00,1.0415
3907.00,1.0415
3906.00,1.0415
3905.00,1.0413
3904.00,1.0411
3903.00,1.0408
3902.00,1.0404
3901.00,1.0402
3900.00,1.0401
3899.00,1.0402
3898.00,1.0405
3897.00,1.0407
3896.00,1.0407
3895.00,1.0406
3894.00,1.0405
3893.00,1.0404
3892.00,1.0403
3891.00,1.0402
3890.00,1.0402
3889.00,1.0400
3888.00,1.0397
3887.00,1.0394
3886.00,1.0393
3885.00,1.0396
3884.00,1.0399
3883.00,1.0401
3882.00,1.0401
3881.00,1.0400
3880.00,1.0399
3879.00,1.0398
3878.00,1.0397
3877.00,1.0396
3876.00,1.0396
3875.00,1.0396
3874.00,1.0397
3873.00,1.0397
3872.00,1.0395
3871.00,1.0392
3870.00,1.0390
3869.00,1.0390
3868.00,1.0392
3867.00,1.0391
3866.00,1.0390
3865.00,1.0391
3864.00,1.0392
3863.00,1.0392
3862.00,1.0391
3861.00,1.0390
3860.00,1.0389
3859.00,1.0386
3858.00,1.0384
3857.00,1.0381
3856.00,1.0380
3855.00,1.0379
3854.00,1.0377
3853.00,1.0375
3852.00,1.0375
3851.00,1.0375
3850.00,1.0376
3849.00,1.0377
3848.00,1.0379
3847.00,1.0380
3846.00,1.0381
3845.00,1.0381
3844.00,1.0381
3843.00,1.0381
3842.00,1.0380
3841.00,1.0377
3840.00,1.0375
3839.00,1.0374
3838.00,1.0373
3837.00,1.0373
3836.00,1.0372
3835.00,1.0372
3834.00,1.0373
3833.00,1.0373
3832.00,1.0373
3831.00,1.0373
3830.00,1.0374
3829.00,1.0374
3828.00,1.0372
3827.00,1.0370
3826.00,1.0370
3825.00,1.0370
3824.00,1.0370
3823.00,1.0369
3822.00,1.0367
3821.00,1.0366
3820.00,1.0366
3819.00,1.0365
3818.00,1.0362
3817.00,1.0360
3816.00,1.0360
3815.00,1.0362
3814.00,1.0362
3813.00,1.0361
3812.00,1.0360
3811.00,1.0360
3810.00,1.0361
3809.00,1.0360
3808.00,1.0358
3807.00,1.0357
3806.00,1.0356
3805.00,1.0355
3804.00,1.0353
3803.00,1.0351
3802.00,1.0352
3801.00,1.0355
3800.00,1.0358
3799.00,1.0358
3798.00,1.0356
3797.00,1.0355
3796.00,1.0356
3795.00,1.0356
3794.00,1.0357
3793.00,1.0356
3792.00,1.0356
3791.00,1.0356
3790.00,1.0356
3789.00,1.0356
3788.00,1.0356
3787.00,1.0355
3786.00,1.0354
3785.00,1.0353
3784.00,1.0353
3783.00,1.0353
3782.00,1.0353
3781.00,1.0351
3780.00,1.0350
3779.00,1.0350
3778.00,1.0350
3777.00,1.0350
3776.00,1.0349
3775.00,1.0348
3774.00,1.0348
3773.00,1.0348
3772.00,1.0346
3771.00,1.0345
3770.00,1.0344
3769.00,1.0344
3768.00,1.0343
3767.00,1.0342
3766.00,1.0340
3765.00,1.0340
3764.00,1.0341
3763.00,1.0341
3762.00,1.0340
3761.00,1.0339
3760.00,1.0339
3759.00,1.0338
3758.00,1.0337
3757.00,1.0335
3756.00,1.0332
3755.00,1.0327
3754.00,1.0322
3753.00,1.0318
3752.00,1.0316
3751.00,1.0316
3750.00,1.0315
3749.00,1.0314
3748.00,1.0313
3747.00,1.0313
3746.00,1.0312
3745.00,1.0313
3744.00,1.0316
3743.00,1.0320
3742.00,1.0321
3741.00,1.0319
3740.00,1.0318
3739.00,1.0319
3738.00,1.0320
3737.00,1.0320
3736.00,1.0320
3735.00,1.0321
3734.00,1.0321
3733.00,1.0320
3732.00,1.0320
3731.00,1.0322
3730.00,1.0324
3729.00,1.0325
3728.00,1.0326
3727.00,1.0326
3726.00,1.0328
3725.00,1.0329
3724.00,1.0328
3723.00,1.0328
3722.00,1.0328
3721.00,1.0328
3720.00,1.0328
3719.00,1.0328
3718.00,1.0327
3717.00,1.0328
3716.00,1.0327
3715.00,1.0326
3714.00,1.0325
3713.00,1.0324
3712.00,1.0324
3711.00,1.0323
3710.00,1.0322
3709.00,1.0322
3708.00,1.0323
3707.00,1.0324
3706.00,1.0326
3705.00,1.0328
3704.00,1.0329
3703.00,1.0330
3702.00,1.0330
3701.00,1.0331
3700.00,1.0332
3699.00,1.0333
3698.00,1.0333
3697.00,1.0334
3696.00,1.0335
3695.00,1.0336
3694.00,1.0337
3693.00,1.0336
3692.00,1.0335
3691.00,1.0332
3690.00,1.0328
3689.00,1.0325
3688.00,1.0324
3687.00,1.0326
3686.00,1.0329
3685.00,1.0331
3684.00,1.0333
3683.00,1.0336
3682.00,1.0338
3681.00,1.0339
3680.00,1.0339
3679.00,1.0339
3678.00,1.0338
3677.00,1.0336
3676.00,1.0334
3675.00,1.0334
3674.00,1.0335
3673.00,1.0336
3672.00,1.0336
3671.00,1.0337
3670.00,1.0340
3669.00,1.0344
3668.00,1.0347
3667.00,1.0349
3666.00,1.0351
3665.00,1.0354
3664.00,1.0356
3663.00,1.0359
3662.00,1.0361
3661.00,1.0362
3660.00,1.0363
3659.00,1.0364
3658.00,1.0364
3657.00,1.0365
3656.00,1.0366
3655.00,1.0368
3654.00,1.0369
3653.00,1.0367
3652.00,1.0366
3651.00,1.0365
3650.00,1.0367
3649.00,1.0369
3648.00,1.0371
3647.00,1.0374
3646.00,1.0377
3645.00,1.0381
3644.00,1.0384
3643.00,1.0387
3642.00,1.0391
3641.00,1.0395
3640.00,1.0398
3639.00,1.0400
3638.00,1.0401
3637.00,1.0401
3636.00,1.0402
3635.00,1.0402
3634.00,1.0402
3633.00,1.0403
3632.00,1.0403
3631.00,1.0403
3630.00,1.0401
3629.00,1.0401
3628.00,1.0403
3627.00,1.0407
3626.00,1.0410
3625.00,1.0414
3624.00,1.0417
3623.00,1.0421
3622.00,1.0424
3621.00,1.0427
3620.00,1.0430
3619.00,1.0433
3618.00,1.0435
3617.00,1.0436
3616.00,1.0437
3615.00,1.0438
3614.00,1.0439
3613.00,1.0440
3612.00,1.0442
3611.00,1.0443
3610.00,1.0444
3609.00,1.0446
3608.00,1.0449
3607.00,1.0451
3606.00,1.0454
3605.00,1.0457
3604.00,1.0460
3603.00,1.0462
3602.00,1.0465
3601.00,1.0467
3600.00,1.0469
3599.00,1.0471
3598.00,1.0472
3597.00,1.0474
3596.00,1.0475
3595.00,1.0476
3594.00,1.0476
3593.00,1.0477
3592.00,1.0478
3591.00,1.0478
3590.00,1.0479
3589.00,1.0479
3588.00,1.0480
3587.00,1.0481
3586.00,1.0482
3585.00,1.0484
3584.00,1.0486
3583.00,1.0488
3582.00,1.0491
3581.00,1.0493
3580.00,1.0495
3579.00,1.0497
3578.00,1.0499
3577.00,1.0499
3576.00,1.0500
3575.00,1.0500
3574.00,1.0500
3573.00,1.0500
3572.00,1.0500
3571.00,1.0500
3570.00,1.0499
3569.00,1.0498
3568.00,1.0497
3567.00,1.0498
3566.00,1.0500
3565.00,1.0502
3564.00,1.0505
3563.00,1.0506
3562.00,1.0508
3561.00,1.0509
3560.00,1.0510
3559.00,1.0510
3558.00,1.0511
3557.00,1.0511
3556.00,1.0512
3555.00,1.0512
3554.00,1.0512
3553.00,1.0512
3552.00,1.0512
3551.00,1.0513
3550.00,1.0514
3549.00,1.0515
3548.00,1.0515
3547.00,1.0515
3546.00,1.0515
3545.00,1.0515
3544.00,1.0516
3543.00,1.0517
3542.00,1.0519
3541.00,1.0520
3540.00,1.0521
3539.00,1.0522
3538.00,1.0522
3537.00,1.0522
3536.00,1.0523
3535.00,1.0525
3534.00,1.0526
3533.00,1.0528
3532.00,1.0528
3531.00,1.0529
3530.00,1.0529
3529.00,1.0530
3528.00,1.0530
3527.00,1.0531
3526.00,1.0531
3525.00,1.0532
3524.00,1.0533
3523.00,1.0535
3522.00,1.0536
3521.00,1.0537
3520.00,1.0539
3519.00,1.0541
3518.00,1.0542
3517.00,1.0543
3516.00,1.0544
3515.00,1.0544
3514.00,1.0545
3513.00,1.0547
3512.00,1.0550
3511.00,1.0552
3510.00,1.0554
3509.00,1.0555
3508.00,1.0557
3507.00,1.0559
3506.00,1.0562
3505.00,1.0565
3504.00,1.0567
3503.00,1.0570
3502.00,1.0571
3501.00,1.0572
3500.00,1.0574
3499.00,1.0575
3498.00,1.0577
3497.00,1.0579
3496.00,1.0581
3495.00,1.0583
3494.00,1.0585
3493.00,1.0587
3492.00,1.0589
3491.00,1.0591
3490.00,1.0593
3489.00,1.0595
3488.00,1.0598
3487.00,1.0601
3486.00,1.0604
3485.00,1.0606
3484.00,1.0609
3483.00,1.0612
3482.00,1.0614
3481.00,1.0616
3480.00,1.0618
3479.00,1.0621
3478.00,1.0625
3477.00,1.0628
3476.00,1.0631
3475.00,1.0634
3474.00,1.0636
3473.00,1.0638
3472.00,1.0640
3471.00,1.0642
3470.00,1.0643
3469.00,1.0644
3468.00,1.0646
3467.00,1.0648
3466.00,1.0652
3465.00,1.0655
3464.00,1.0658
3463.00,1.0662
3462.00,1.0666
3461.00,1.0670
3460.00,1.0674
3459.00,1.0678
3458.00,1.0681
3457.00,1.0683
3456.00,1.0685
3455.00,1.0687
3454.00,1.0689
3453.00,1.0692
3452.00,1.0696
3451.00,1.0700
3450.00,1.0702
3449.00,1.0704
3448.00,1.0706
3447.00,1.0709
3446.00,1.0712
3445.00,1.0714
3444.00,1.0717
3443.00,1.0719
3442.00,1.0721
3441.00,1.0724
3440.00,1.0726
3439.00,1.0728
3438.00,1.0730
3437.00,1.0732
3436.00,1.0733
3435.00,1.0735
3434.00,1.0737
3433.00,1.0740
3432.00,1.0743
3431.00,1.0745
3430.00,1.0748
3429.00,1.0751
3428.00,1.0754
3427.00,1.0757
3426.00,1.0759
3425.00,1.0762
3424.00,1.0763
3423.00,1.0765
3422.00,1.0767
3421.00,1.0769
3420.00,1.0772
3419.00,1.0774
3418.00,1.0776
3417.00,1.0778
3416.00,1.0779
3415.00,1.0780
3414.00,1.0781
3413.00,1.0782
3412.00,1.0783
3411.00,1.0784
3410.00,1.0785
3409.00,1.0786
3408.00,1.0788
3407.00,1.0790
3406.00,1.0791
3405.00,1.0792
3404.00,1.0792
3403.00,1.0792
3402.00,1.0791
3401.00,1.0792
3400.00,1.0793
3399.00,1.0795
3398.00,1.0798
3397.00,1.0801
3396.00,1.0804
3395.00,1.0805
3394.00,1.0806
3393.00,1.0805
3392.00,1.0804
3391.00,1.0805
3390.00,1.0806
3389.00,1.0808
3388.00,1.0810
3387.00,1.0812
3386.00,1.0814
3385.00,1.0815
3384.00,1.0815
3383.00,1.0815
3382.00,1.0816
3381.00,1.0816
3380.00,1.0818
3379.00,1.0820
3378.00,1.0822
3377.00,1.0823
3376.00,1.0823
3375.00,1.0823
3374.00,1.0822
3373.00,1.0822
3372.00,1.0821
3371.00,1.0820
3370.00,1.0819
3369.00,1.0819
3368.00,1.0820
3367.00,1.0822
3366.00,1.0823
3365.00,1.0824
3364.00,1.0825
3363.00,1.0825
3362.00,1.0826
3361.00,1.0826
3360.00,1.0827
3359.00,1.0828
3358.00,1.0829
3357.00,1.0830
3356.00,1.0830
3355.00,1.0830
3354.00,1.0830
3353.00,1.0829
3352.00,1.0828
3351.00,1.0828
3350.00,1.0829
3349.00,1.0831
3348.00,1.0832
3347.00,1.0833
3346.00,1.0833
3345.00,1.0833
3344.00,1.0834
3343.00,1.0834
3342.00,1.0834
3341.00,1.0834
3340.00,1.0833
3339.00,1.0833
3338.00,1.0833
3337.00,1.0833
3336.00,1.0834
3335.00,1.0834
3334.00,1.0835
3333.00,1.0837
3332.00,1.0838
3331.00,1.0839
3330.00,1.0840
3329.00,1.0840
3328.00,1.0840
3327.00,1.0839
3326.00,1.0839
3325.00,1.0840
3324.00,1.0842
3323.00,1.0843
3322.00,1.0844
3321.00,1.0844
3320.00,1.0844
3319.00,1.0844
3318.00,1.0845
3317.00,1.0845
3316.00,1.0846
3315.00,1.0847
3314.00,1.0848
3313.00,1.0849
3312.00,1.0849
3311.00,1.0849
3310.00,1.0848
3309.00,1.0847
3308.00,1.0846
3307.00,1.0845
3306.00,1.0845
3305.00,1.0846
3304.00,1.0848
3303.00,1.0850
3302.00,1.0853
3301.00,1.0854
3300.00,1.0855
3299.00,1.0856
3298.00,1.0856
3297.00,1.0856
3296.00,1.0856
3295.00,1.0856
3294.00,1.0856
3293.00,1.0856
3292.00,1.0857
3291.00,1.0859
3290.00,1.0861
3289.00,1.0862
3288.00,1.0863
3287.00,1.0864
3286.00,1.0864
3285.00,1.0863
3284.00,1.0864
3283.00,1.0864
3282.00,1.0865
3281.00,1.0866
3280.00,1.0868
3279.00,1.0869
3278.00,1.0869
3277.00,1.0869
3276.00,1.0869
3275.00,1.0869
3274.00,1.0869
3273.00,1.0870
3272.00,1.0870
3271.00,1.0871
3270.00,1.0872
3269.00,1.0873
3268.00,1.0874
3267.00,1.0875
3266.00,1.0876
3265.00,1.0877
3264.00,1.0878
3263.00,1.0879
3262.00,1.0879
3261.00,1.0879
3260.00,1.0879
3259.00,1.0880
3258.00,1.0881
3257.00,1.0882
3256.00,1.0883
3255.00,1.0884
3254.00,1.0886
3253.00,1.0887
3252.00,1.0888
3251.00,1.0888
3250.00,1.0888
3249.00,1.0887
3248.00,1.0886
3247.00,1.0887
3246.00,1.0888
3245.00,1.0890
3244.00,1.0892
3243.00,1.0894
3242.00,1.0894
3241.00,1.0895
3240.00,1.0895
3239.00,1.0896
3238.00,1.0896
3237.00,1.0896
3236.00,1.0896
3235.00,1.0895
3234.00,1.0895
3233.00,1.0896
3232.00,1.0896
3231.00,1.0897
3230.00,1.0898
3229.00,1.0899
3228.00,1.0899
3227.00,1.0900
3226.00,1.0900
3225.00,1.0901
3224.00,1.0902
3223.00,1.0903
3222.00,1.0903
3221.00,1.0903
3220.00,1.0903
3219.00,1.0903
3218.00,1.0904
3217.00,1.0905
3216.00,1.0905
3215.00,1.0905
3214.00,1.0905
3213.00,1.0905
3212.00,1.0906
3211.00,1.0906
3210.00,1.0906
3209.00,1.0906
3208.00,1.0907
3207.00,1.0907
3206.00,1.0908
3205.00,1.0908
3204.00,1.0908
3203.00,1.0908
3202.00,1.0908
3201.00,1.0907
3200.00,1.0907
3199.00,1.0906
3198.00,1.0905
3197.00,1.0906
3196.00,1.0906
3195.00,1.0907
3194.00,1.0907
3193.00,1.0906
3192.00,1.0905
3191.00,1.0904
3190.00,1.0903
3189.00,1.0903
3188.00,1.0904
3187.00,1.0906
3186.00,1.0907
3185.00,1.0908
3184.00,1.0909
3183.00,1.0909
3182.00,1.0909
3181.00,1.0909
3180.00,1.0910
3179.00,1.0910
3178.00,1.0910
3177.00,1.0909
3176.00,1.0909
3175.00,1.0910
3174.00,1.0910
3173.00,1.0912
3172.00,1.0912
3171.00,1.0912
3170.00,1.0911
3169.00,1.0911
3168.00,1.0911
3167.00,1.0911
3166.00,1.0912
3165.00,1.0913
3164.00,1.0914
3163.00,1.0914
3162.00,1.0914
3161.00,1.0914
3160.00,1.0914
3159.00,1.0914
3158.00,1.0913
3157.00,1.0913
3156.00,1.0914
3155.00,1.0914
3154.00,1.0914
3153.00,1.0914
3152.00,1.0914
3151.00,1.0915
3150.00,1.0916
3149.00,1.0917
3148.00,1.0917
3147.00,1.0917
3146.00,1.0917
3145.00,1.0918
3144.00,1.0919
3143.00,1.0919
3142.00,1.0920
3141.00,1.0920
3140.00,1.0920
3139.00,1.0920
3138.00,1.0920
3137.00,1.0920
3136.00,1.0920
3135.00,1.0920
3134.00,1.0920
3133.00,1.0922
3132.00,1.0923
3131.00,1.0924
3130.00,1.0924
3129.00,1.0924
3128.00,1.0924
3127.00,1.0924
3126.00,1.0925
3125.00,1.0927
3124.00,1.0928
3123.00,1.0927
3122.00,1.0925
3121.00,1.0923
3120.00,1.0922
3119.00,1.0922
3118.00,1.0922
3117.00,1.0923
3116.00,1.0924
3115.00,1.0925
3114.00,1.0926
3113.00,1.0927
3112.00,1.0928
3111.00,1.0927
3110.00,1.0926
3109.00,1.0926
3108.00,1.0926
3107.00,1.0926
3106.00,1.0927
3105.00,1.0927
3104.00,1.0927
3103.00,1.0927
3102.00,1.0927
3101.00,1.0926
3100.00,1.0927
3099.00,1.0927
3098.00,1.0928
3097.00,1.0929
3096.00,1.0929
3095.00,1.0928
3094.00,1.0927
3093.00,1.0926
3092.00,1.0926
3091.00,1.0926
3090.00,1.0926
3089.00,1.0926
3088.00,1.0926
3087.00,1.0925
3086.00,1.0924
3085.00,1.0924
3084.00,1.0923
3083.00,1.0923
3082.00,1.0923
3081.00,1.0922
3080.00,1.0922
3079.00,1.0922
3078.00,1.0922
3077.00,1.0923
3076.00,1.0924
3075.00,1.0924
3074.00,1.0925
3073.00,1.0925
3072.00,1.0925
3071.00,1.0924
3070.00,1.0924
3069.00,1.0924
3068.00,1.0923
3067.00,1.0922
3066.00,1.0922
3065.00,1.0922
3064.00,1.0922
3063.00,1.0922
3062.00,1.0922
3061.00,1.0921
3060.00,1.0921
3059.00,1.0921
3058.00,1.0921
3057.00,1.0921
3056.00,1.0921
3055.00,1.0921
3054.00,1.0921
3053.00,1.0921
3052.00,1.0920
3051.00,1.0919
3050.00,1.0919
3049.00,1.0918
3048.00,1.0918
3047.00,1.0917
3046.00,1.0916
3045.00,1.0915
3044.00,1.0914
3043.00,1.0914
3042.00,1.0914
3041.00,1.0915
3040.00,1.0916
3039.00,1.0917
3038.00,1.0917
3037.00,1.0916
3036.00,1.0915
3035.00,1.0915
3034.00,1.0915
3033.00,1.0915
3032.00,1.0915
3031.00,1.0916
3030.00,1.0916
3029.00,1.0917
3028.00,1.0917
3027.00,1.0917
3026.00,1.0916
3025.00,1.0915
3024.00,1.0915
3023.00,1.0914
3022.00,1.0914
3021.00,1.0914
3020.00,1.0913
3019.00,1.0911
3018.00,1.0911
3017.00,1.0910
3016.00,1.0910
3015.00,1.0911
3014.00,1.0911
3013.00,1.0912
3012.00,1.0913
3011.00,1.0914
3010.00,1.0915
3009.00,1.0916
3008.00,1.0916
3007.00,1.0916
3006.00,1.0915
3005.00,1.0914
3004.00,1.0914
3003.00,1.0914
3002.00,1.0914
3001.00,1.0913
3000.00,1.0912
2999.00,1.0911
2998.00,1.0909
2997.00,1.0909
2996.00,1.0909
2995.00,1.0908
2994.00,1.0908
2993.00,1.0908
2992.00,1.0908
2991.00,1.0908
2990.00,1.0908
2989.00,1.0908
2988.00,1.0907
2987.00,1.0907
2986.00,1.0906
2985.00,1.0906
2984.00,1.0905
2983.00,1.0905
2982.00,1.0904
2981.00,1.0903
2980.00,1.0902
2979.00,1.0901
2978.00,1.0901
2977.00,1.0901
2976.00,1.0901
2975.00,1.0901
2974.00,1.0901
2973.00,1.0901
2972.00,1.0901
2971.00,1.0901
2970.00,1.0900
2969.00,1.0900
2968.00,1.0899
2967.00,1.0898
2966.00,1.0899
2965.00,1.0899
2964.00,1.0900
2963.00,1.0901
2962.00,1.0902
2961.00,1.0902
2960.00,1.0902
2959.00,1.0902
2958.00,1.0902
2957.00,1.0901
2956.00,1.0900
2955.00,1.0899
2954.00,1.0898
2953.00,1.0896
2952.00,1.0895
2951.00,1.0895
2950.00,1.0894
2949.00,1.0893
2948.00,1.0892
2947.00,1.0891
2946.00,1.0889
2945.00,1.0889
2944.00,1.0888
2943.00,1.0888
2942.00,1.0887
2941.00,1.0886
2940.00,1.0884
2939.00,1.0884
2938.00,1.0884
2937.00,1.0886
2936.00,1.0887
2935.00,1.0887
2934.00,1.0886
2933.00,1.0885
2932.00,1.0885
2931.00,1.0885
2930.00,1.0885
2929.00,1.0886
2928.00,1.0886
2927.00,1.0887
2926.00,1.0888
2925.00,1.0890
2924.00,1.0891
2923.00,1.0893
2922.00,1.0895
2921.00,1.0896
2920.00,1.0897
2919.00,1.0897
2918.00,1.0897
2917.00,1.0896
2916.00,1.0895
2915.00,1.0893
2914.00,1.0891
2913.00,1.0890
2912.00,1.0889
2911.00,1.0888
2910.00,1.0888
2909.00,1.0887
2908.00,1.0886
2907.00,1.0885
2906.00,1.0884
2905.00,1.0883
2904.00,1.0883
2903.00,1.0882
2902.00,1.0882
2901.00,1.0882
2900.00,1.0882
2899.00,1.0882
2898.00,1.0881
2897.00,1.0881
2896.00,1.0880
2895.00,1.0878
2894.00,1.0876
2893.00,1.0874
2892.00,1.0873
2891.00,1.0873
2890.00,1.0873
2889.00,1.0872
2888.00,1.0872
2887.00,1.0871
2886.00,1.0870
2885.00,1.0870
2884.00,1.0869
2883.00,1.0869
2882.00,1.0867
2881.00,1.0866
2880.00,1.0865
2879.00,1.0864
2878.00,1.0862
2877.00,1.0860
2876.00,1.0859
2875.00,1.0858
2874.00,1.0858
2873.00,1.0858
2872.00,1.0857
2871.00,1.0856
2870.00,1.0855
2869.00,1.0855
2868.00,1.0854
2867.00,1.0853
2866.00,1.0851
2865.00,1.0850
2864.00,1.0850
2863.00,1.0849
2862.00,1.0850
2861.00,1.0851
2860.00,1.0852
2859.00,1.0853
2858.00,1.0853
2857.00,1.0854
2856.00,1.0854
2855.00,1.0855
2854.00,1.0855
2853.00,1.0855
2852.00,1.0856
2851.00,1.0856
2850.00,1.0856
2849.00,1.0856
2848.00,1.0856
2847.00,1.0855
2846.00,1.0854
2845.00,1.0853
2844.00,1.0852
2843.00,1.0850
2842.00,1.0849
2841.00,1.0847
2840.00,1.0846
2839.00,1.0844
2838.00,1.0844
2837.00,1.0844
2836.00,1.0844
2835.00,1.0844
2834.00,1.0844
2833.00,1.0843
2832.00,1.0842
2831.00,1.0841
2830.00,1.0841
2829.00,1.0840
2828.00,1.0839
2827.00,1.0838
2826.00,1.0838
2825.00,1.0838
2824.00,1.0838
2823.00,1.0837
2822.00,1.0836
2821.00,1.0835
2820.00,1.0835
2819.00,1.0834
2818.00,1.0834
2817.00,1.0835
2816.00,1.0835
2815.00,1.0835
2814.00,1.0835
2813.00,1.0835
2812.00,1.0833
2811.00,1.0831
2810.00,1.0829
2809.00,1.0828
2808.00,1.0828
2807.00,1.0829
2806.00,1.0829
2805.00,1.0828
2804.00,1.0828
2803.00,1.0827
2802.00,1.0826
2801.00,1.0826
2800.00,1.0825
2799.00,1.0825
2798.00,1.0824
2797.00,1.0823
2796.00,1.0823
2795.00,1.0822
2794.00,1.0822
2793.00,1.0822
2792.00,1.0822
2791.00,1.0822
2790.00,1.0822
2789.00,1.0822
2788.00,1.0822
2787.00,1.0822
2786.00,1.0821
2785.00,1.0821
2784.00,1.0821
2783.00,1.0821
2782.00,1.0820
2781.00,1.0820
2780.00,1.0819
2779.00,1.0819
2778.00,1.0819
2777.00,1.0818
2776.00,1.0818
2775.00,1.0817
2774.00,1.0817
2773.00,1.0817
2772.00,1.0818
2771.00,1.0817
2770.00,1.0817
2769.00,1.0817
2768.00,1.0816
2767.00,1.0816
2766.00,1.0816
2765.00,1.0816
2764.00,1.0816
2763.00,1.0816
2762.00,1.0816
2761.00,1.0817
2760.00,1.0817
2759.00,1.0816
2758.00,1.0816
2757.00,1.0816
2756.00,1.0816
2755.00,1.0817
2754.00,1.0818
2753.00,1.0818
2752.00,1.0817
2751.00,1.0814
2750.00,1.0813
2749.00,1.0813
2748.00,1.0814
2747.00,1.0814
2746.00,1.0815
2745.00,1.0814
2744.00,1.0814
2743.00,1.0814
2742.00,1.0814
2741.00,1.0814
2740.00,1.0814
2739.00,1.0813
2738.00,1.0813
2737.00,1.0813
2736.00,1.0812
2735.00,1.0812
2734.00,1.0811
2733.00,1.0811
2732.00,1.0811
2731.00,1.0812
2730.00,1.0812
2729.00,1.0812
2728.00,1.0811
2727.00,1.0811
2726.00,1.0811
2725.00,1.0811
2724.00,1.0811
2723.00,1.0811
2722.00,1.0812
2721.00,1.0812
2720.00,1.0812
2719.00,1.0811
2718.00,1.0810
2717.00,1.0810
2716.00,1.0811
2715.00,1.0811
2714.00,1.0811
2713.00,1.0810
2712.00,1.0810
2711.00,1.0811
2710.00,1.0812
2709.00,1.0812
2708.00,1.0812
2707.00,1.0811
2706.00,1.0811
2705.00,1.0811
2704.00,1.0811
2703.00,1.0811
2702.00,1.0811
2701.00,1.0812
2700.00,1.0812
2699.00,1.0812
2698.00,1.0812
2697.00,1.0813
2696.00,1.0813
2695.00,1.0813
2694.00,1.0814
2693.00,1.0815
2692.00,1.0815
2691.00,1.0814
2690.00,1.0813
2689.00,1.0813
2688.00,1.0813
2687.00,1.0814
2686.00,1.0815
2685.00,1.0814
2684.00,1.0814
2683.00,1.0813
2682.00,1.0813
2681.00,1.0813
2680.00,1.0814
2679.00,1.0814
2678.00,1.0815
2677.00,1.0815
2676.00,1.0815
2675.00,1.0816
2674.00,1.0816
2673.00,1.0816
2672.00,1.0816
2671.00,1.0816
2670.00,1.0816
2669.00,1.0816
2668.00,1.0817
2667.00,1.0818
2666.00,1.0818
2665.00,1.0819
2664.00,1.0819
2663.00,1.0819
2662.00,1.0818
2661.00,1.0818
2660.00,1.0818
2659.00,1.0818
2658.00,1.0820
2657.00,1.0821
2656.00,1.0822
2655.00,1.0822
2654.00,1.0822
2653.00,1.0822
2652.00,1.0822
2651.00,1.0821
2650.00,1.0821
2649.00,1.0821
2648.00,1.0822
2647.00,1.0823
2646.00,1.0823
2645.00,1.0824
2644.00,1.0825
2643.00,1.0825
2642.00,1.0825
2641.00,1.0824
2640.00,1.0824
2639.00,1.0824
2638.00,1.0825
2637.00,1.0826
2636.00,1.0827
2635.00,1.0827
2634.00,1.0827
2633.00,1.0828
2632.00,1.0828
2631.00,1.0829
2630.00,1.0830
2629.00,1.0831
2628.00,1.0833
2627.00,1.0834
2626.00,1.0834
2625.00,1.0833
2624.00,1.0831
2623.00,1.0829
2622.00,1.0829
2621.00,1.0830
2620.00,1.0830
2619.00,1.0830
2618.00,1.0830
2617.00,1.0830
2616.00,1.0830
2615.00,1.0831
2614.00,1.0831
2613.00,1.0832
2612.00,1.0832
2611.00,1.0832
2610.00,1.0833
2609.00,1.0834
2608.00,1.0834
2607.00,1.0834
2606.00,1.0833
2605.00,1.0834
2604.00,1.0834
2603.00,1.0834
2602.00,1.0835
2601.00,1.0835
2600.00,1.0835
2599.00,1.0834
2598.00,1.0834
2597.00,1.0834
2596.00,1.0835
2595.00,1.0835
2594.00,1.0836
2593.00,1.0837
2592.00,1.0838
2591.00,1.0839
2590.00,1.0840
2589.00,1.0840
2588.00,1.0840
2587.00,1.0839
2586.00,1.0838
2585.00,1.0838
2584.00,1.0839
2583.00,1.0840
2582.00,1.0842
2581.00,1.0843
2580.00,1.0843
2579.00,1.0843
2578.00,1.0843
2577.00,1.0842
2576.00,1.0842
2575.00,1.0841
2574.00,1.0841
2573.00,1.0842
2572.00,1.0842
2571.00,1.0842
2570.00,1.0842
2569.00,1.0841
2568.00,1.0841
2567.00,1.0841
2566.00,1.0842
2565.00,1.0843
2564.00,1.0844
2563.00,1.0844
2562.00,1.0844
2561.00,1.0844
2560.00,1.0844
2559.00,1.0845
2558.00,1.0846
2557.00,1.0847
2556.00,1.0847
2555.00,1.0847
2554.00,1.0847
2553.00,1.0847
2552.00,1.0848
2551.00,1.0849
2550.00,1.0849
2549.00,1.0850
2548.00,1.0850
2547.00,1.0851
2546.00,1.0851
2545.00,1.0851
2544.00,1.0851
2543.00,1.0851
2542.00,1.0851
2541.00,1.0851
2540.00,1.0852
2539.00,1.0852
2538.00,1.0852
2537.00,1.0853
2536.00,1.0853
2535.00,1.0852
2534.00,1.0852
2533.00,1.0852
2532.00,1.0852
2531.00,1.0853
2530.00,1.0854
2529.00,1.0855
2528.00,1.0856
2527.00,1.0856
2526.00,1.0856
2525.00,1.0857
2524.00,1.0856
2523.00,1.0856
2522.00,1.0855
2521.00,1.0855
2520.00,1.0855
2519.00,1.0856
2518.00,1.0857
2517.00,1.0857
2516.00,1.0857
2515.00,1.0857
2514.00,1.0857
2513.00,1.0857
2512.00,1.0858
2511.00,1.0859
2510.00,1.0859
2509.00,1.0859
2508.00,1.0859
2507.00,1.0860
2506.00,1.0861
2505.00,1.0863
2504.00,1.0866
2503.00,1.0868
2502.00,1.0869
2501.00,1.0868
2500.00,1.0866
2499.00,1.0865
2498.00,1.0864
2497.00,1.0864
2496.00,1.0864
2495.00,1.0864
2494.00,1.0864
2493.00,1.0864
2492.00,1.0865
2491.00,1.0865
2490.00,1.0865
2489.00,1.0866
2488.00,1.0867
2487.00,1.0868
2486.00,1.0868
2485.00,1.0868
2484.00,1.0869
2483.00,1.0869
2482.00,1.0869
2481.00,1.0870
2480.00,1.0870
2479.00,1.0870
2478.00,1.0871
2477.00,1.0871
2476.00,1.0871
2475.00,1.0871
2474.00,1.0871
2473.00,1.0872
2472.00,1.0872
2471.00,1.0873
2470.00,1.0873
2469.00,1.0873
2468.00,1.0874
2467.00,1.0876
2466.00,1.0877
2465.00,1.0878
2464.00,1.0878
2463.00,1.0878
2462.00,1.0879
2461.00,1.0879
2460.00,1.0880
2459.00,1.0880
2458.00,1.0881
2457.00,1.0882
2456.00,1.0882
2455.00,1.0882
2454.00,1.0882
2453.00,1.0883
2452.00,1.0884
2451.00,1.0885
2450.00,1.0885
2449.00,1.0884
2448.00,1.0884
2447.00,1.0883
2446.00,1.0884
2445.00,1.0885
2444.00,1.0886
2443.00,1.0887
2442.00,1.0888
2441.00,1.0887
2440.00,1.0887
2439.00,1.0886
2438.00,1.0886
2437.00,1.0885
2436.00,1.0885
2435.00,1.0886
2434.00,1.0888
2433.00,1.0889
2432.00,1.0890
2431.00,1.0890
2430.00,1.0890
2429.00,1.0891
2428.00,1.0892
2427.00,1.0893
2426.00,1.0893
2425.00,1.0894
2424.00,1.0894
2423.00,1.0894
2422.00,1.0893
2421.00,1.0892
2420.00,1.0892
2419.00,1.0891
2418.00,1.0890
2417.00,1.0890
2416.00,1.0889
2415.00,1.0888
2414.00,1.0887
2413.00,1.0887
2412.00,1.0887
2411.00,1.0887
2410.00,1.0887
2409.00,1.0887
2408.00,1.0886
2407.00,1.0885
2406.00,1.0885
2405.00,1.0884
2404.00,1.0884
2403.00,1.0884
2402.00,1.0883
2401.00,1.0883
2400.00,1.0882
2399.00,1.0882
2398.00,1.0881
2397.00,1.0881
2396.00,1.0881
2395.00,1.0881
2394.00,1.0881
2393.00,1.0881
2392.00,1.0882
2391.00,1.0882
2390.00,1.0881
2389.00,1.0881
2388.00,1.0881
2387.00,1.0881
2386.00,1.0881
2385.00,1.0882
2384.00,1.0882
2383.00,1.0883
2382.00,1.0884
2381.00,1.0885
2380.00,1.0886
2379.00,1.0888
2378.00,1.0889
2377.00,1.0890
2376.00,1.0891
2375.00,1.0890
2374.00,1.0888
2373.00,1.0887
2372.00,1.0886
2371.00,1.0885
2370.00,1.0885
2369.00,1.0886
2368.00,1.0886
2367.00,1.0886
2366.00,1.0886
2365.00,1.0886
2364.00,1.0886
2363.00,1.0886
2362.00,1.0886
2361.00,1.0886
2360.00,1.0887
2359.00,1.0887
2358.00,1.0888
2357.00,1.0888
2356.00,1.0889
2355.00,1.0889
2354.00,1.0888
2353.00,1.0887
2352.00,1.0886
2351.00,1.0886
2350.00,1.0887
2349.00,1.0888
2348.00,1.0888
2347.00,1.0888
2346.00,1.0887
2345.00,1.0887
2344.00,1.0888
2343.00,1.0888
2342.00,1.0888
2341.00,1.0889
2340.00,1.0890
2339.00,1.0890
2338.00,1.0891
2337.00,1.0891
2336.00,1.0890
2335.00,1.0890
2334.00,1.0889
2333.00,1.0889
2332.00,1.0888
2331.00,1.0888
2330.00,1.0888
2329.00,1.0889
2328.00,1.0890
2327.00,1.0889
2326.00,1.0888
2325.00,1.0888
2324.00,1.0888
2323.00,1.0888
2322.00,1.0889
2321.00,1.0889
2320.00,1.0890
2319.00,1.0890
2318.00,1.0891
2317.00,1.0892
2316.00,1.0892
2315.00,1.0892
2314.00,1.0891
2313.00,1.0892
2312.00,1.0891
2311.00,1.0891
2310.00,1.0891
2309.00,1.0892
2308.00,1.0893
2307.00,1.0894
2306.00,1.0894
2305.00,1.0894
2304.00,1.0894
2303.00,1.0894
2302.00,1.0894
2301.00,1.0894
2300.00,1.0895
2299.00,1.0895
2298.00,1.0895
2297.00,1.0895
2296.00,1.0895
2295.00,1.0896
2294.00,1.0896
2293.00,1.0897
2292.00,1.0897
2291.00,1.0897
2290.00,1.0897
2289.00,1.0897
2288.00,1.0897
2287.00,1.0897
2286.00,1.0897
2285.00,1.0898
2284.00,1.0898
2283.00,1.0899
2282.00,1.0900
2281.00,1.0901
2280.00,1.0901
2279.00,1.0900
2278.00,1.0899
2277.00,1.0899
2276.00,1.0900
2275.00,1.0900
2274.00,1.0901
2273.00,1.0901
2272.00,1.0901
2271.00,1.0901
2270.00,1.0901
2269.00,1.0901
2268.00,1.0902
2267.00,1.0902
2266.00,1.0903
2265.00,1.0904
2264.00,1.0905
2263.00,1.0905
2262.00,1.0905
2261.00,1.0905
2260.00,1.0905
2259.00,1.0904
2258.00,1.0903
2257.00,1.0903
2256.00,1.0904
2255.00,1.0905
2254.00,1.0906
2253.00,1.0909
2252.00,1.0911
2251.00,1.0912
2250.00,1.0911
2249.00,1.0909
2248.00,1.0906
2247.00,1.0905
2246.00,1.0904
2245.00,1.0905
2244.00,1.0906
2243.00,1.0906
2242.00,1.0906
2241.00,1.0907
2240.00,1.0907
2239.00,1.0907
2238.00,1.0906
2237.00,1.0906
2236.00,1.0907
2235.00,1.0907
2234.00,1.0907
2233.00,1.0907
2232.00,1.0908
2231.00,1.0907
2230.00,1.0907
2229.00,1.0907
2228.00,1.0907
2227.00,1.0907
2226.00,1.0907
2225.00,1.0908
2224.00,1.0908
2223.00,1.0908
2222.00,1.0908
2221.00,1.0909
2220.00,1.0909
2219.00,1.0908
2218.00,1.0908
2217.00,1.0907
2216.00,1.0907
2215.00,1.0907
2214.00,1.0906
2213.00,1.0906
2212.00,1.0906
2211.00,1.0906
2210.00,1.0907
2209.00,1.0907
2208.00,1.0908
2207.00,1.0908
2206.00,1.0908
2205.00,1.0907
2204.00,1.0907
2203.00,1.0907
2202.00,1.0906
2201.00,1.0906
2200.00,1.0907
2199.00,1.0908
2198.00,1.0908
2197.00,1.0908
2196.00,1.0907
2195.00,1.0906
2194.00,1.0905
2193.00,1.0904
2192.00,1.0905
2191.00,1.0906
2190.00,1.0906
2189.00,1.0907
2188.00,1.0907
2187.00,1.0906
2186.00,1.0905
2185.00,1.0904
2184.00,1.0903
2183.00,1.0903
2182.00,1.0903
2181.00,1.0903
2180.00,1.0904
2179.00,1.0904
2178.00,1.0905
2177.00,1.0904
2176.00,1.0904
2175.00,1.0903
2174.00,1.0902
2173.00,1.0902
2172.00,1.0902
2171.00,1.0902
2170.00,1.0902
2169.00,1.0903
2168.00,1.0903
2167.00,1.0903
2166.00,1.0901
2165.00,1.0899
2164.00,1.0898
2163.00,1.0898
2162.00,1.0898
2161.00,1.0898
2160.00,1.0898
2159.00,1.0898
2158.00,1.0898
2157.00,1.0898
2156.00,1.0898
2155.00,1.0898
2154.00,1.0897
2153.00,1.0896
2152.00,1.0895
2151.00,1.0895
2150.00,1.0894
2149.00,1.0894
2148.00,1.0895
2147.00,1.0895
2146.00,1.0894
2145.00,1.0893
2144.00,1.0893
2143.00,1.0892
2142.00,1.0892
2141.00,1.0892
2140.00,1.0891
2139.00,1.0890
2138.00,1.0889
2137.00,1.0889
2136.00,1.0890
2135.00,1.0889
2134.00,1.0889
2133.00,1.0889
2132.00,1.0889
2131.00,1.0888
2130.00,1.0887
2129.00,1.0887
2128.00,1.0888
2127.00,1.0888
2126.00,1.0888
2125.00,1.0888
2124.00,1.0887
2123.00,1.0886
2122.00,1.0885
2121.00,1.0884
2120.00,1.0884
2119.00,1.0883
2118.00,1.0882
2117.00,1.0882
2116.00,1.0882
2115.00,1.0882
2114.00,1.0881
2113.00,1.0881
2112.00,1.0881
2111.00,1.0880
2110.00,1.0880
2109.00,1.0880
2108.00,1.0880
2107.00,1.0879
2106.00,1.0879
2105.00,1.0878
2104.00,1.0878
2103.00,1.0877
2102.00,1.0877
2101.00,1.0876
2100.00,1.0876
2099.00,1.0875
2098.00,1.0874
2097.00,1.0874
2096.00,1.0874
2095.00,1.0874
2094.00,1.0874
2093.00,1.0874
2092.00,1.0873
2091.00,1.0873
2090.00,1.0871
2089.00,1.0871
2088.00,1.0870
2087.00,1.0869
2086.00,1.0869
2085.00,1.0868
2084.00,1.0868
2083.00,1.0868
2082.00,1.0867
2081.00,1.0867
2080.00,1.0867
2079.00,1.0866
2078.00,1.0865
2077.00,1.0864
2076.00,1.0864
2075.00,1.0865
2074.00,1.0865
2073.00,1.0864
2072.00,1.0864
2071.00,1.0863
2070.00,1.0862
2069.00,1.0862
2068.00,1.0862
2067.00,1.0862
2066.00,1.0862
2065.00,1.0861
2064.00,1.0861
2063.00,1.0860
2062.00,1.0859
2061.00,1.0858
2060.00,1.0857
2059.00,1.0856
2058.00,1.0856
2057.00,1.0856
2056.00,1.0856
2055.00,1.0855
2054.00,1.0854
2053.00,1.0853
2052.00,1.0853
2051.00,1.0853
2050.00,1.0853
2049.00,1.0853
2048.00,1.0854
2047.00,1.0853
2046.00,1.0852
2045.00,1.0850
2044.00,1.0850
2043.00,1.0849
2042.00,1.0849
2041.00,1.0849
2040.00,1.0849
2039.00,1.0849
2038.00,1.0848
2037.00,1.0847
2036.00,1.0846
2035.00,1.0845
2034.00,1.0845
2033.00,1.0844
2032.00,1.0844
2031.00,1.0844
2030.00,1.0844
2029.00,1.0845
2028.00,1.0845
2027.00,1.0844
2026.00,1.0842
2025.00,1.0841
2024.00,1.0841
2023.00,1.0841
2022.00,1.0841
2021.00,1.0841
2020.00,1.0841
2019.00,1.0840
2018.00,1.0840
2017.00,1.0840
2016.00,1.0839
2015.00,1.0838
2014.00,1.0836
2013.00,1.0836
2012.00,1.0836
2011.00,1.0836
2010.00,1.0837
2009.00,1.0837
2008.00,1.0837
2007.00,1.0836
2006.00,1.0834
2005.00,1.0833
2004.00,1.0834
2003.00,1.0835
2002.00,1.0836
2001.00,1.0836
2000.00,1.0836
1999.00,1.0835
1998.00,1.0833
1997.00,1.0832
1996.00,1.0831
1995.00,1.0830
1994.00,1.0831
1993.00,1.0832
1992.00,1.0832
1991.00,1.0832
1990.00,1.0831
1989.00,1.0830
1988.00,1.0830
1987.00,1.0830
1986.00,1.0829
1985.00,1.0829
1984.00,1.0829
1983.00,1.0829
1982.00,1.0829
1981.00,1.0829
1980.00,1.0829
1979.00,1.0828
1978.00,1.0828
1977.00,1.0827
1976.00,1.0827
1975.00,1.0826
1974.00,1.0827
1973.00,1.0827
1972.00,1.0827
1971.00,1.0826
1970.00,1.0826
1969.00,1.0826
1968.00,1.0827
1967.00,1.0826
1966.00,1.0826
1965.00,1.0826
1964.00,1.0826
1963.00,1.0825
1962.00,1.0825
1961.00,1.0824
1960.00,1.0824
1959.00,1.0824
1958.00,1.0824
1957.00,1.0825
1956.00,1.0826
1955.00,1.0826
1954.00,1.0825
1953.00,1.0825
1952.00,1.0824
1951.00,1.0823
1950.00,1.0823
1949.00,1.0823
1948.00,1.0823
1947.00,1.0824
1946.00,1.0825
1945.00,1.0826
1944.00,1.0826
1943.00,1.0826
1942.00,1.0824
1941.00,1.0823
1940.00,1.0822
1939.00,1.0821
1938.00,1.0822
1937.00,1.0823
1936.00,1.0825
1935.00,1.0825
1934.00,1.0825
1933.00,1.0825
1932.00,1.0825
1931.00,1.0824
1930.00,1.0823
1929.00,1.0823
1928.00,1.0824
1927.00,1.0824
1926.00,1.0825
1925.00,1.0826
1924.00,1.0827
1923.00,1.0826
1922.00,1.0825
1921.00,1.0825
1920.00,1.0826
1919.00,1.0827
1918.00,1.0827
1917.00,1.0826
1916.00,1.0826
1915.00,1.0825
1914.00,1.0825
1913.00,1.0826
1912.00,1.0828
1911.00,1.0828
1910.00,1.0828
1909.00,1.0829
1908.00,1.0830
1907.00,1.0830
1906.00,1.0829
1905.00,1.0828
1904.00,1.0828
1903.00,1.0828
1902.00,1.0827
1901.00,1.0828
1900.00,1.0829
1899.00,1.0830
1898.00,1.0829
1897.00,1.0830
1896.00,1.0830
1895.00,1.0830
1894.00,1.0829
1893.00,1.0830
1892.00,1.0832
1891.00,1.0834
1890.00,1.0834
1889.00,1.0834
1888.00,1.0834
1887.00,1.0832
1886.00,1.0831
1885.00,1.0831
1884.00,1.0832
1883.00,1.0832
1882.00,1.0832
1881.00,1.0833
1880.00,1.0834
1879.00,1.0835
1878.00,1.0834
1877.00,1.0833
1876.00,1.0831
1875.00,1.0830
1874.00,1.0829
1873.00,1.0830
1872.00,1.0833
1871.00,1.0836
1870.00,1.0838
1869.00,1.0839
1868.00,1.0839
1867.00,1.0837
1866.00,1.0834
1865.00,1.0833
1864.00,1.0834
1863.00,1.0834
1862.00,1.0833
1861.00,1.0835
1860.00,1.0837
1859.00,1.0837
1858.00,1.0836
1857.00,1.0835
1856.00,1.0835
1855.00,1.0834
1854.00,1.0834
1853.00,1.0835
1852.00,1.0837
1851.00,1.0838
1850.00,1.0838
1849.00,1.0838
1848.00,1.0838
1847.00,1.0839
1846.00,1.0841
1845.00,1.0843
1844.00,1.0843
1843.00,1.0841
1842.00,1.0838
1841.00,1.0838
1840.00,1.0838
1839.00,1.0838
1838.00,1.0838
1837.00,1.0838
1836.00,1.0838
1835.00,1.0839
1834.00,1.0839
1833.00,1.0841
1832.00,1.0844
1831.00,1.0846
1830.00,1.0846
1829.00,1.0845
1828.00,1.0843
1827.00,1.0841
1826.00,1.0841
1825.00,1.0841
1824.00,1.0842
1823.00,1.0843
1822.00,1.0843
1821.00,1.0844
1820.00,1.0845
1819.00,1.0847
1818.00,1.0847
1817.00,1.0847
1816.00,1.0848
1815.00,1.0849
1814.00,1.0848
1813.00,1.0848
1812.00,1.0849
1811.00,1.0848
1810.00,1.0846
1809.00,1.0845
1808.00,1.0846
1807.00,1.0848
1806.00,1.0848
1805.00,1.0850
1804.00,1.0852
1803.00,1.0852
1802.00,1.0851
1801.00,1.0849
1800.00,1.0849
1799.00,1.0849
1798.00,1.0848
1797.00,1.0849
1796.00,1.0851
1795.00,1.0852
1794.00,1.0851
1793.00,1.0850
1792.00,1.0850
1791.00,1.0850
1790.00,1.0848
1789.00,1.0848
1788.00,1.0850
1787.00,1.0852
1786.00,1.0854
1785.00,1.0855
1784.00,1.0858
1783.00,1.0858
1782.00,1.0858
1781.00,1.0856
1780.00,1.0856
1779.00,1.0856
1778.00,1.0856
1777.00,1.0857
1776.00,1.0859
1775.00,1.0860
1774.00,1.0860
1773.00,1.0860
1772.00,1.0859
1771.00,1.0859
1770.00,1.0859
1769.00,1.0859
1768.00,1.0860
1767.00,1.0862
1766.00,1.0864
1765.00,1.0864
1764.00,1.0865
1763.00,1.0866
1762.00,1.0866
1761.00,1.0866
1760.00,1.0866
1759.00,1.0867
1758.00,1.0869
1757.00,1.0870
1756.00,1.0869
1755.00,1.0867
1754.00,1.0866
1753.00,1.0864
1752.00,1.0862
1751.00,1.0863
1750.00,1.0865
1749.00,1.0867
1748.00,1.0869
1747.00,1.0871
1746.00,1.0873
1745.00,1.0873
1744.00,1.0872
1743.00,1.0872
1742.00,1.0872
1741.00,1.0872
1740.00,1.0873
1739.00,1.0874
1738.00,1.0875
1737.00,1.0874
1736.00,1.0872
1735.00,1.0869
1734.00,1.0867
1733.00,1.0869
1732.00,1.0873
1731.00,1.0876
1730.00,1.0879
1729.00,1.0881
1728.00,1.0884
1727.00,1.0885
1726.00,1.0885
1725.00,1.0886
1724.00,1.0887
1723.00,1.0886
1722.00,1.0884
1721.00,1.0884
1720.00,1.0885
1719.00,1.0885
1718.00,1.0882
1717.00,1.0882
1716.00,1.0885
1715.00,1.0885
1714.00,1.0883
1713.00,1.0884
1712.00,1.0889
1711.00,1.0891
1710.00,1.0890
1709.00,1.0890
1708.00,1.0892
1707.00,1.0892
1706.00,1.0890
1705.00,1.0889
1704.00,1.0891
1703.00,1.0891
1702.00,1.0889
1701.00,1.0888
1700.00,1.0890
1699.00,1.0890
1698.00,1.0888
1697.00,1.0889
1696.00,1.0893
1695.00,1.0896
1694.00,1.0896
1693.00,1.0896
1692.00,1.0896
1691.00,1.0897
1690.00,1.0897
1689.00,1.0896
1688.00,1.0894
1687.00,1.0892
1686.00,1.0894
1685.00,1.0897
1684.00,1.0899
1683.00,1.0900
1682.00,1.0902
1681.00,1.0902
1680.00,1.0900
1679.00,1.0898
1678.00,1.0898
1677.00,1.0897
1676.00,1.0895
1675.00,1.0895
1674.00,1.0899
1673.00,1.0902
1672.00,1.0902
1671.00,1.0901
1670.00,1.0902
1669.00,1.0903
1668.00,1.0902
1667.00,1.0901
1666.00,1.0902
1665.00,1.0905
1664.00,1.0907
1663.00,1.0907
1662.00,1.0908
1661.00,1.0908
1660.00,1.0905
1659.00,1.0905
1658.00,1.0906
1657.00,1.0907
1656.00,1.0906
1655.00,1.0905
1654.00,1.0906
1653.00,1.0907
1652.00,1.0908
1651.00,1.0909
1650.00,1.0909
1649.00,1.0908
1648.00,1.0907
1647.00,1.0908
1646.00,1.0909
1645.00,1.0910
1644.00,1.0911
1643.00,1.0911
1642.00,1.0910
1641.00,1.0908
1640.00,1.0907
1639.00,1.0908
1638.00,1.0910
1637.00,1.0910
1636.00,1.0911
1635.00,1.0911
1634.00,1.0912
1633.00,1.0912
1632.00,1.0911
1631.00,1.0911
1630.00,1.0910
1629.00,1.0910
1628.00,1.0911
1627.00,1.0911
1626.00,1.0912
1625.00,1.0913
1624.00,1.0911
1623.00,1.0908
1622.00,1.0908
1621.00,1.0908
1620.00,1.0909
1619.00,1.0910
1618.00,1.0913
1617.00,1.0916
1616.00,1.0917
1615.00,1.0916
1614.00,1.0916
1613.00,1.0915
1612.00,1.0913
1611.00,1.0912
1610.00,1.0913
1609.00,1.0917
1608.00,1.0919
1607.00,1.0921
1606.00,1.0924
1605.00,1.0925
1604.00,1.0923
1603.00,1.0921
1602.00,1.0922
1601.00,1.0924
1600.00,1.0923
1599.00,1.0923
1598.00,1.0925
1597.00,1.0926
1596.00,1.0926
1595.00,1.0926
1594.00,1.0927
1593.00,1.0927
1592.00,1.0925
1591.00,1.0924
1590.00,1.0925
1589.00,1.0926
1588.00,1.0927
1587.00,1.0926
1586.00,1.0927
1585.00,1.0928
1584.00,1.0926
1583.00,1.0925
1582.00,1.0928
1581.00,1.0931
1580.00,1.0931
1579.00,1.0930
1578.00,1.0931
1577.00,1.0932
1576.00,1.0930
1575.00,1.0929
1574.00,1.0931
1573.00,1.0932
1572.00,1.0930
1571.00,1.0930
1570.00,1.0931
1569.00,1.0931
1568.00,1.0928
1567.00,1.0925
1566.00,1.0926
1565.00,1.0927
1564.00,1.0926
1563.00,1.0927
1562.00,1.0931
1561.00,1.0934
1560.00,1.0931
1559.00,1.0928
1558.00,1.0929
1557.00,1.0930
1556.00,1.0930
1555.00,1.0929
1554.00,1.0931
1553.00,1.0932
1552.00,1.0932
1551.00,1.0933
1550.00,1.0934
1549.00,1.0933
1548.00,1.0930
1547.00,1.0927
1546.00,1.0927
1545.00,1.0930
1544.00,1.0933
1543.00,1.0935
1542.00,1.0936
1541.00,1.0936
1540.00,1.0933
1539.00,1.0931
1538.00,1.0931
1537.00,1.0933
1536.00,1.0934
1535.00,1.0934
1534.00,1.0935
1533.00,1.0937
1532.00,1.0939
1531.00,1.0938
1530.00,1.0937
1529.00,1.0935
1528.00,1.0934
1527.00,1.0932
1526.00,1.0932
1525.00,1.0933
1524.00,1.0933
1523.00,1.0934
1522.00,1.0934
1521.00,1.0934
1520.00,1.0934
1519.00,1.0934
1518.00,1.0932
1517.00,1.0930
1516.00,1.0930
1515.00,1.0930
1514.00,1.0931
1513.00,1.0931
1512.00,1.0933
1511.00,1.0934
1510.00,1.0931
1509.00,1.0926
1508.00,1.0923
1507.00,1.0923
1506.00,1.0923
1505.00,1.0924
1504.00,1.0926
1503.00,1.0927
1502.00,1.0925
1501.00,1.0922
1500.00,1.0921
1499.00,1.0920
1498.00,1.0918
1497.00,1.0918
1496.00,1.0922
1495.00,1.0930
1494.00,1.0936
1493.00,1.0940
1492.00,1.0942
1491.00,1.0942
1490.00,1.0941
1489.00,1.0942
1488.00,1.0944
1487.00,1.0944
1486.00,1.0942
1485.00,1.0942
1484.00,1.0941
1483.00,1.0939
1482.00,1.0936
1481.00,1.0934
1480.00,1.0934
1479.00,1.0934
1478.00,1.0933
1477.00,1.0934
1476.00,1.0934
1475.00,1.0932
1474.00,1.0928
1473.00,1.0924
1472.00,1.0923
1471.00,1.0924
1470.00,1.0926
1469.00,1.0929
1468.00,1.0932
1467.00,1.0933
1466.00,1.0932
1465.00,1.0929
1464.00,1.0927
1463.00,1.0926
1462.00,1.0924
1461.00,1.0923
1460.00,1.0923
1459.00,1.0924
1458.00,1.0924
1457.00,1.0921
1456.00,1.0917
1455.00,1.0917
1454.00,1.0919
1453.00,1.0920
1452.00,1.0922
1451.00,1.0927
1450.00,1.0931
1449.00,1.0933
1448.00,1.0935
1447.00,1.0937
1446.00,1.0937
1445.00,1.0933
1444.00,1.0930
1443.00,1.0930
1442.00,1.0930
1441.00,1.0929
1440.00,1.0927
1439.00,1.0928
1438.00,1.0928
1437.00,1.0924
1436.00,1.0920
1435.00,1.0921
1434.00,1.0923
1433.00,1.0923
1432.00,1.0923
1431.00,1.0926
1430.00,1.0927
1429.00,1.0926
1428.00,1.0925
1427.00,1.0925
1426.00,1.0925
1425.00,1.0922
1424.00,1.0919
1423.00,1.0921
1422.00,1.0925
1421.00,1.0927
1420.00,1.0926
1419.00,1.0927
1418.00,1.0926
1417.00,1.0922
1416.00,1.0918
1415.00,1.0919
1414.00,1.0922
1413.00,1.0921
1412.00,1.0920
1411.00,1.0921
1410.00,1.0922
1409.00,1.0921
1408.00,1.0918
1407.00,1.0917
1406.00,1.0918
1405.00,1.0919
1404.00,1.0919
1403.00,1.0922
1402.00,1.0925
1401.00,1.0924
1400.00,1.0921
1399.00,1.0920
1398.00,1.0920
1397.00,1.0919
1396.00,1.0919
1395.00,1.0920
1394.00,1.0922
1393.00,1.0922
1392.00,1.0920
1391.00,1.0919
1390.00,1.0919
1389.00,1.0918
1388.00,1.0914
1387.00,1.0912
1386.00,1.0913
1385.00,1.0914
1384.00,1.0917
1383.00,1.0918
1382.00,1.0919
1381.00,1.0918
1380.00,1.0915
1379.00,1.0913
1378.00,1.0913
1377.00,1.0914
1376.00,1.0913
1375.00,1.0913
1374.00,1.0914
1373.00,1.0914
1372.00,1.0913
1371.00,1.0911
1370.00,1.0910
1369.00,1.0909
1368.00,1.0908
1367.00,1.0909
1366.00,1.0910
1365.00,1.0911
1364.00,1.0911
1363.00,1.0911
1362.00,1.0911
1361.00,1.0911
1360.00,1.0909
1359.00,1.0907
1358.00,1.0906
1357.00,1.0906
1356.00,1.0907
1355.00,1.0908
1354.00,1.0909
1353.00,1.0909
1352.00,1.0908
1351.00,1.0906
1350.00,1.0906
1349.00,1.0906
1348.00,1.0905
1347.00,1.0905
1346.00,1.0906
1345.00,1.0906
1344.00,1.0905
1343.00,1.0903
1342.00,1.0902
1341.00,1.0901
1340.00,1.0900
1339.00,1.0900
1338.00,1.0902
1337.00,1.0903
1336.00,1.0903
1335.00,1.0902
1334.00,1.0901
1333.00,1.0900
1332.00,1.0899
1331.00,1.0899
1330.00,1.0900
1329.00,1.0901
1328.00,1.0901
1327.00,1.0901
1326.00,1.0902
1325.00,1.0901
1324.00,1.0900
1323.00,1.0898
1322.00,1.0897
1321.00,1.0897
1320.00,1.0897
1319.00,1.0898
1318.00,1.0900
1317.00,1.0901
1316.00,1.0900
1315.00,1.0899
1314.00,1.0898
1313.00,1.0896
1312.00,1.0896
1311.00,1.0897
1310.00,1.0899
1309.00,1.0900
1308.00,1.0900
1307.00,1.0900
1306.00,1.0900
1305.00,1.0898
1304.00,1.0896
1303.00,1.0896
1302.00,1.0896
1301.00,1.0897
1300.00,1.0898
1299.00,1.0899
1298.00,1.0899
1297.00,1.0898
1296.00,1.0897
1295.00,1.0895
1294.00,1.0895
1293.00,1.0894
1292.00,1.0894
1291.00,1.0894
1290.00,1.0896
1289.00,1.0897
1288.00,1.0896
1287.00,1.0895
1286.00,1.0893
1285.00,1.0891
1284.00,1.0890
1283.00,1.0889
1282.00,1.0889
1281.00,1.0889
1280.00,1.0889
1279.00,1.0890
1278.00,1.0891
1277.00,1.0891
1276.00,1.0890
1275.00,1.0889
1274.00,1.0887
1273.00,1.0886
1272.00,1.0886
1271.00,1.0888
1270.00,1.0889
1269.00,1.0889
1268.00,1.0888
1267.00,1.0887
1266.00,1.0887
1265.00,1.0887
1264.00,1.0888
1263.00,1.0890
1262.00,1.0892
1261.00,1.0894
1260.00,1.0895
1259.00,1.0896
1258.00,1.0897
1257.00,1.0896
1256.00,1.0894
1255.00,1.0893
1254.00,1.0893
1253.00,1.0891
1252.00,1.0887
1251.00,1.0884
1250.00,1.0885
1249.00,1.0886
1248.00,1.0887
1247.00,1.0887
1246.00,1.0888
1245.00,1.0889
1244.00,1.0890
1243.00,1.0891
1242.00,1.0892
1241.00,1.0893
1240.00,1.0892
1239.00,1.0889
1238.00,1.0887
1237.00,1.0885
1236.00,1.0886
1235.00,1.0890
1234.00,1.0895
1233.00,1.0898
1232.00,1.0897
1231.00,1.0894
1230.00,1.0891
1229.00,1.0888
1228.00,1.0887
1227.00,1.0888
1226.00,1.0890
1225.00,1.0892
1224.00,1.0893
1223.00,1.0892
1222.00,1.0891
1221.00,1.0888
1220.00,1.0884
1219.00,1.0881
1218.00,1.0880
1217.00,1.0881
1216.00,1.0884
1215.00,1.0887
1214.00,1.0889
1213.00,1.0887
1212.00,1.0884
1211.00,1.0881
1210.00,1.0881
1209.00,1.0881
1208.00,1.0880
1207.00,1.0881
1206.00,1.0883
1205.00,1.0886
1204.00,1.0888
1203.00,1.0888
1202.00,1.0887
1201.00,1.0884
1200.00,1.0880
1199.00,1.0879
1198.00,1.0880
1197.00,1.0882
1196.00,1.0882
1195.00,1.0882
1194.00,1.0880
1193.00,1.0879
1192.00,1.0877
1191.00,1.0878
1190.00,1.0880
1189.00,1.0880
1188.00,1.0880
1187.00,1.0879
1186.00,1.0881
1185.00,1.0883
1184.00,1.0883
1183.00,1.0883
1182.00,1.0882
1181.00,1.0882
1180.00,1.0883
1179.00,1.0886
1178.00,1.0888
1177.00,1.0889
1176.00,1.0888
1175.00,1.0887
1174.00,1.0886
1173.00,1.0886
1172.00,1.0886
1171.00,1.0887
1170.00,1.0889
1169.00,1.0890
1168.00,1.0891
1167.00,1.0893
1166.00,1.0894
1165.00,1.0893
1164.00,1.0890
1163.00,1.0888
1162.00,1.0887
1161.00,1.0888
1160.00,1.0891
1159.00,1.0894
1158.00,1.0895
1157.00,1.0894
1156.00,1.0890
1155.00,1.0887
1154.00,1.0885
1153.00,1.0885
1152.00,1.0886
1151.00,1.0889
1150.00,1.0893
1149.00,1.0896
1148.00,1.0895
1147.00,1.0892
1146.00,1.0888
1145.00,1.0883
1144.00,1.0878
1143.00,1.0877
1142.00,1.0880
1141.00,1.0885
1140.00,1.0889
1139.00,1.0891
1138.00,1.0890
1137.00,1.0885
1136.00,1.0879
1135.00,1.0876
1134.00,1.0875
1133.00,1.0875
1132.00,1.0876
1131.00,1.0878
1130.00,1.0881
1129.00,1.0885
1128.00,1.0889
1127.00,1.0893
1126.00,1.0893
1125.00,1.0886
1124.00,1.0876
1123.00,1.0868
1122.00,1.0867
1121.00,1.0870
1120.00,1.0871
1119.00,1.0870
1118.00,1.0868
1117.00,1.0864
1116.00,1.0861
1115.00,1.0859
1114.00,1.0858
1113.00,1.0858
1112.00,1.0858
1111.00,1.0857
1110.00,1.0857
1109.00,1.0856
1108.00,1.0855
1107.00,1.0855
1106.00,1.0854
1105.00,1.0852
1104.00,1.0851
1103.00,1.0852
1102.00,1.0853
1101.00,1.0851
1100.00,1.0846
1099.00,1.0840
1098.00,1.0838
1097.00,1.0839
1096.00,1.0839
1095.00,1.0838
1094.00,1.0835
1093.00,1.0831
1092.00,1.0827
1091.00,1.0824
1090.00,1.0823
1089.00,1.0819
1088.00,1.0814
1087.00,1.0810
1086.00,1.0810
1085.00,1.0811
1084.00,1.0811
1083.00,1.0808
1082.00,1.0801
1081.00,1.0792
1080.00,1.0784
1079.00,1.0781
1078.00,1.0783
1077.00,1.0785
1076.00,1.0786
1075.00,1.0785
1074.00,1.0783
1073.00,1.0779
1072.00,1.0772
1071.00,1.0762
1070.00,1.0751
1069.00,1.0739
1068.00,1.0731
1067.00,1.0731
1066.00,1.0737
1065.00,1.0742
1064.00,1.0739
1063.00,1.0728
1062.00,1.0715
1061.00,1.0702
1060.00,1.0694
1059.00,1.0691
1058.00,1.0691
1057.00,1.0690
1056.00,1.0685
1055.00,1.0682
1054.00,1.0681
1053.00,1.0678
1052.00,1.0670
1051.00,1.0658
1050.00,1.0649
1049.00,1.0645
1048.00,1.0648
1047.00,1.0654
1046.00,1.0659
1045.00,1.0657
1044.00,1.0646
1043.00,1.0633
1042.00,1.0622
1041.00,1.0613
1040.00,1.0608
1039.00,1.0605
1038.00,1.0604
1037.00,1.0601
1036.00,1.0596
1035.00,1.0592
1034.00,1.0589
1033.00,1.0583
1032.00,1.0574
1031.00,1.0567
1030.00,1.0567
1029.00,1.0569
1028.00,1.0570
1027.00,1.0566
1026.00,1.0556
1025.00,1.0543
1024.00,1.0532
1023.00,1.0528
1022.00,1.0531
1021.00,1.0533
1020.00,1.0533
1019.00,1.0530
1018.00,1.0528
1017.00,1.0524
1016.00,1.0516
1015.00,1.0506
1014.00,1.0497
1013.00,1.0492
1012.00,1.0490
1011.00,1.0494
1010.00,1.0500
1009.00,1.0502
1008.00,1.0496
1007.00,1.0483
1006.00,1.0467
1005.00,1.0453
1004.00,1.0443
1003.00,1.0439
1002.00,1.0437
1001.00,1.0434
1000.00,1.0431
