Created as New Dataset,Sample 036 By Administrator Date Monday, February 10 2020
cm-1,A
6000.00,1.0724
5999.00,1.0727
5998.00,1.0729
5997.00,1.0728
5996.00,1.0728
5995.00,1.0728
5994.00,1.0727
5993.00,1.0725
5992.00,1.0724
5991.00,1.0724
5990.00,1.0723
5989.00,1.0721
5988.00,1.0720
5987.00,1.0719
5986.00,1.0718
5985.00,1.0716
5984.00,1.0714
5983.00,1.0712
5982.00,1.0709
5981.00,1.0707
5980.00,1.0707
5979.00,1.0706
5978.00,1.0704
5977.00,1.0702
5976.00,1.0698
5975.00,1.0696
5974.00,1.0694
5973.00,1.0693
5972.00,1.0693
5971.00,1.0694
5970.00,1.0696
5969.00,1.0697
5968.00,1.0700
5967.00,1.0703
5966.00,1.0706
5965.00,1.0708
5964.00,1.0711
5963.00,1.0714
5962.00,1.0716
5961.00,1.0716
5960.00,1.0717
5959.00,1.0719
5958.00,1.0720
5957.00,1.0720
5956.00,1.0719
5955.00,1.0717
5954.00,1.0715
5953.00,1.0714
5952.00,1.0714
5951.00,1.0715
5950.00,1.0716
5949.00,1.0716
5948.00,1.0717
5947.00,1.0717
5946.00,1.0716
5945.00,1.0714
5944.00,1.0712
5943.00,1.0710
5942.00,1.0708
5941.00,1.0706
5940.00,1.0704
5939.00,1.0703
5938.00,1.0702
5937.00,1.0702
5936.00,1.0701
5935.00,1.0701
5934.00,1.0700
5933.00,1.0700
5932.00,1.0700
5931.00,1.0700
5930.00,1.0700
5929.00,1.0700
5928.00,1.0700
5927.00,1.0700
5926.00,1.0700
5925.00,1.0699
5924.00,1.0698
5923.00,1.0700
5922.00,1.0702
5921.00,1.0703
5920.00,1.0705
5919.00,1.0706
5918.00,1.0707
5917.00,1.0708
5916.00,1.0710
5915.00,1.0713
5914.00,1.0716
5913.00,1.0718
5912.00,1.0720
5911.00,1.0722
5910.00,1.0724
5909.00,1.0724
5908.00,1.0723
5907.00,1.0722
5906.00,1.0720
5905.00,1.0718
5904.00,1.0716
5903.00,1.0714
5902.00,1.0713
5901.00,1.0713
5900.00,1.0713
5899.00,1.0714
5898.00,1.0713
5897.00,1.0712
5896.00,1.0711
5895.00,1.0710
5894.00,1.0709
5893.00,1.0708
5892.00,1.0706
5891.00,1.0704
5890.00,1.0702
5889.00,1.0701
5888.00,1.0699
5887.00,1.0699
5886.00,1.0700
5885.00,1.0701
5884.00,1.0701
5883.00,1.0701
5882.00,1.0700
5881.00,1.0699
5880.00,1.0698
5879.00,1.0699
5878.00,1.0699
5877.00,1.0699
5876.00,1.0699
5875.00,1.0699
5874.00,1.0699
5873.00,1.0700
5872.00,1.0701
5871.00,1.0701
5870.00,1.0702
5869.00,1.0704
5868.00,1.0705
5867.00,1.0706
5866.00,1.0708
5865.00,1.0710
5864.00,1.0712
5863.00,1.0714
5862.00,1.0715
5861.00,1.0715
5860.00,1.0714
5859.00,1.0714
5858.00,1.0713
5857.00,1.0713
5856.00,1.0713
5855.00,1.0713
5854.00,1.0712
5853.00,1.0710
5852.00,1.0708
5851.00,1.0705
5850.00,1.0703
5849.00,1.0700
5848.00,1.0698
5847.00,1.0697
5846.00,1.0696
5845.00,1.0696
5844.00,1.0696
5843.00,1.0697
5842.00,1.0698
5841.00,1.0698
5840.00,1.0697
5839.00,1.0696
5838.00,1.0695
5837.00,1.0695
5836.00,1.0695
5835.00,1.0696
5834.00,1.0697
5833.00,1.0698
5832.00,1.0699
5831.00,1.0700
5830.00,1.0701
5829.00,1.0702
5828.00,1.0704
5827.00,1.0707
5826.00,1.0710
5825.00,1.0712
5824.00,1.0713
5823.00,1.0715
5822.00,1.0715
5821.00,1.0716
5820.00,1.0716
5819.00,1.0716
5818.00,1.0715
5817.00,1.0714
5816.00,1.0714
5815.00,1.0713
5814.00,1.0713
5813.00,1.0712
5812.00,1.0712
5811.00,1.0713
5810.00,1.0713
5809.00,1.0712
5808.00,1.0710
5807.00,1.0707
5806.00,1.0704
5805.00,1.0700
5804.00,1.0698
5803.00,1.0696
5802.00,1.0696
5801.00,1.0695
5800.00,1.0695
5799.00,1.0696
5798.00,1.0696
5797.00,1.0696
5796.00,1.0697
5795.00,1.0698
5794.00,1.0699
5793.00,1.0700
5792.00,1.0701
5791.00,1.0702
5790.00,1.0702
5789.00,1.0700
5788.00,1.0698
5787.00,1.0696
5786.00,1.0695
5785.00,1.0694
5784.00,1.0695
5783.00,1.0698
5782.00,1.0701
5781.00,1.0704
5780.00,1.0708
5779.00,1.0712
5778.00,1.0715
5777.00,1.0716
5776.00,1.0715
5775.00,1.0714
5774.00,1.0711
5773.00,1.0708
5772.00,1.0705
5771.00,1.0705
5770.00,1.0706
5769.00,1.0710
5768.00,1.0714
5767.00,1.0717
5766.00,1.0718
5765.00,1.0717
5764.00,1.0715
5763.00,1.0713
5762.00,1.0711
5761.00,1.0708
5760.00,1.0705
5759.00,1.0703
5758.00,1.0701
5757.00,1.0699
5756.00,1.0697
5755.00,1.0696
5754.00,1.0694
5753.00,1.0693
5752.00,1.0692
5751.00,1.0692
5750.00,1.0691
5749.00,1.0691
5748.00,1.0691
5747.00,1.0691
5746.00,1.0691
5745.00,1.0690
5744.00,1.0690
5743.00,1.0690
5742.00,1.0691
5741.00,1.0693
5740.00,1.0694
5739.00,1.0696
5738.00,1.0698
5737.00,1.0699
5736.00,1.0701
5735.00,1.0703
5734.00,1.0705
5733.00,1.0707
5732.00,1.0709
5731.00,1.0711
5730.00,1.0711
5729.00,1.0710
5728.00,1.0709
5727.00,1.0707
5726.00,1.0706
5725.00,1.0706
5724.00,1.0705
5723.00,1.0705
5722.00,1.0705
5721.00,1.0705
5720.00,1.0704
5719.00,1.0705
5718.00,1.0704
5717.00,1.0704
5716.00,1.0702
5715.00,1.0700
5714.00,1.0698
5713.00,1.0695
5712.00,1.0692
5711.00,1.0691
5710.00,1.0691
5709.00,1.0691
5708.00,1.0691
5707.00,1.0691
5706.00,1.0691
5705.00,1.0691
5704.00,1.0692
5703.00,1.0693
5702.00,1.0694
5701.00,1.0695
5700.00,1.0695
5699.00,1.0695
5698.00,1.0695
5697.00,1.0695
5696.00,1.0696
5695.00,1.0698
5694.00,1.0700
5693.00,1.0702
5692.00,1.0703
5691.00,1.0704
5690.00,1.0705
5689.00,1.0705
5688.00,1.0706
5687.00,1.0707
5686.00,1.0709
5685.00,1.0710
5684.00,1.0710
5683.00,1.0709
5682.00,1.0708
5681.00,1.0706
5680.00,1.0705
5679.00,1.0704
5678.00,1.0703
5677.00,1.0704
5676.00,1.0704
5675.00,1.0703
5674.00,1.0702
5673.00,1.0700
5672.00,1.0698
5671.00,1.0697
5670.00,1.0695
5669.00,1.0692
5668.00,1.0690
5667.00,1.0689
5666.00,1.0688
5665.00,1.0688
5664.00,1.0689
5663.00,1.0691
5662.00,1.0692
5661.00,1.0693
5660.00,1.0694
5659.00,1.0695
5658.00,1.0695
5657.00,1.0695
5656.00,1.0695
5655.00,1.0695
5654.00,1.0694
5653.00,1.0693
5652.00,1.0692
5651.00,1.0693
5650.00,1.0695
5649.00,1.0697
5648.00,1.0700
5647.00,1.0702
5646.00,1.0703
5645.00,1.0704
5644.00,1.0704
5643.00,1.0705
5642.00,1.0705
5641.00,1.0705
5640.00,1.0706
5639.00,1.0706
5638.00,1.0707
5637.00,1.0707
5636.00,1.0707
5635.00,1.0707
5634.00,1.0706
5633.00,1.0704
5632.00,1.0704
5631.00,1.0703
5630.00,1.0703
5629.00,1.0703
5628.00,1.0702
5627.00,1.0701
5626.00,1.0700
5625.00,1.0698
5624.00,1.0695
5623.00,1.0694
5622.00,1.0692
5621.00,1.0691
5620.00,1.0689
5619.00,1.0688
5618.00,1.0688
5617.00,1.0687
5616.00,1.0687
5615.00,1.0687
5614.00,1.0686
5613.00,1.0686
5612.00,1.0686
5611.00,1.0687
5610.00,1.0688
5609.00,1.0690
5608.00,1.0692
5607.00,1.0694
5606.00,1.0695
5605.00,1.0696
5604.00,1.0696
5603.00,1.0698
5602.00,1.0699
5601.00,1.0700
5600.00,1.0702
5599.00,1.0702
5598.00,1.0703
5597.00,1.0703
5596.00,1.0704
5595.00,1.0706
5594.00,1.0707
5593.00,1.0708
5592.00,1.0709
5591.00,1.0708
5590.00,1.0707
5589.00,1.0705
5588.00,1.0703
5587.00,1.0702
5586.00,1.0701
5585.00,1.0699
5584.00,1.0697
5583.00,1.0695
5582.00,1.0693
5581.00,1.0691
5580.00,1.0690
5579.00,1.0690
5578.00,1.0690
5577.00,1.0690
5576.00,1.0691
5575.00,1.0692
5574.00,1.0693
5573.00,1.0693
5572.00,1.0692
5571.00,1.0691
5570.00,1.0690
5569.00,1.0688
5568.00,1.0688
5567.00,1.0688
5566.00,1.0689
5565.00,1.0691
5564.00,1.0692
5563.00,1.0694
5562.00,1.0696
5561.00,1.0698
5560.00,1.0700
5559.00,1.0701
5558.00,1.0702
5557.00,1.0701
5556.00,1.0699
5555.00,1.0697
5554.00,1.0696
5553.00,1.0695
5552.00,1.0695
5551.00,1.0696
5550.00,1.0696
5549.00,1.0697
5548.00,1.0698
5547.00,1.0699
5546.00,1.0700
5545.00,1.0700
5544.00,1.0700
5543.00,1.0701
5542.00,1.0700
5541.00,1.0700
5540.00,1.0699
5539.00,1.0698
5538.00,1.0697
5537.00,1.0696
5536.00,1.0694
5535.00,1.0693
5534.00,1.0694
5533.00,1.0694
5532.00,1.0695
5531.00,1.0695
5530.00,1.0694
5529.00,1.0693
5528.00,1.0692
5527.00,1.0691
5526.00,1.0690
5525.00,1.0689
5524.00,1.0689
5523.00,1.0688
5522.00,1.0687
5521.00,1.0686
5520.00,1.0687
5519.00,1.0689
5518.00,1.0691
5517.00,1.0692
5516.00,1.0694
5515.00,1.0695
5514.00,1.0696
5513.00,1.0697
5512.00,1.0698
5511.00,1.0699
5510.00,1.0699
5509.00,1.0698
5508.00,1.0697
5507.00,1.0696
5506.00,1.0696
5505.00,1.0696
5504.00,1.0697
5503.00,1.0698
5502.00,1.0699
5501.00,1.0699
5500.00,1.0698
5499.00,1.0698
5498.00,1.0697
5497.00,1.0696
5496.00,1.0695
5495.00,1.0694
5494.00,1.0693
5493.00,1.0691
5492.00,1.0690
5491.00,1.0690
5490.00,1.0688
5489.00,1.0686
5488.00,1.0684
5487.00,1.0683
5486.00,1.0683
5485.00,1.0683
5484.00,1.0685
5483.00,1.0686
5482.00,1.0687
5481.00,1.0686
5480.00,1.0686
5479.00,1.0686
5478.00,1.0687
5477.00,1.0688
5476.00,1.0688
5475.00,1.0688
5474.00,1.0688
5473.00,1.0689
5472.00,1.0689
5471.00,1.0691
5470.00,1.0692
5469.00,1.0693
5468.00,1.0693
5467.00,1.0694
5466.00,1.0694
5465.00,1.0694
5464.00,1.0695
5463.00,1.0695
5462.00,1.0695
5461.00,1.0694
5460.00,1.0694
5459.00,1.0693
5458.00,1.0693
5457.00,1.0694
5456.00,1.0696
5455.00,1.0697
5454.00,1.0698
5453.00,1.0699
5452.00,1.0697
5451.00,1.0694
5450.00,1.0690
5449.00,1.0686
5448.00,1.0684
5447.00,1.0683
5446.00,1.0681
5445.00,1.0681
5444.00,1.0682
5443.00,1.0683
5442.00,1.0683
5441.00,1.0682
5440.00,1.0681
5439.00,1.0682
5438.00,1.0683
5437.00,1.0682
5436.00,1.0681
5435.00,1.0680
5434.00,1.0680
5433.00,1.0680
5432.00,1.0682
5431.00,1.0683
5430.00,1.0684
5429.00,1.0684
5428.00,1.0685
5427.00,1.0687
5426.00,1.0688
5425.00,1.0690
5424.00,1.0691
5423.00,1.0692
5422.00,1.0693
5421.00,1.0692
5420.00,1.0691
5419.00,1.0690
5418.00,1.0689
5417.00,1.0689
5416.00,1.0689
5415.00,1.0690
5414.00,1.0691
5413.00,1.0692
5412.00,1.0692
5411.00,1.0693
5410.00,1.0693
5409.00,1.0694
5408.00,1.0695
5407.00,1.0697
5406.00,1.0697
5405.00,1.0695
5404.00,1.0694
5403.00,1.0692
5402.00,1.0691
5401.00,1.0690
5400.00,1.0689
5399.00,1.0688
5398.00,1.0686
5397.00,1.0684
5396.00,1.0683
5395.00,1.0682
5394.00,1.0681
5393.00,1.0680
5392.00,1.0680
5391.00,1.0680
5390.00,1.0680
5389.00,1.0679
5388.00,1.0679
5387.00,1.0680
5386.00,1.0680
5385.00,1.0681
5384.00,1.0682
5383.00,1.0682
5382.00,1.0682
5381.00,1.0683
5380.00,1.0684
5379.00,1.0686
5378.00,1.0687
5377.00,1.0688
5376.00,1.0690
5375.00,1.0691
5374.00,1.0692
5373.00,1.0693
5372.00,1.0693
5371.00,1.0694
5370.00,1.0694
5369.00,1.0693
5368.00,1.0693
5367.00,1.0692
5366.00,1.0692
5365.00,1.0692
5364.00,1.0691
5363.00,1.0691
5362.00,1.0691
5361.00,1.0690
5360.00,1.0689
5359.00,1.0689
5358.00,1.0688
5357.00,1.0687
5356.00,1.0685
5355.00,1.0684
5354.00,1.0683
5353.00,1.0681
5352.00,1.0681
5351.00,1.0680
5350.00,1.0679
5349.00,1.0678
5348.00,1.0678
5347.00,1.0680
5346.00,1.0680
5345.00,1.0680
5344.00,1.0679
5343.00,1.0680
5342.00,1.0682
5341.00,1.0683
5340.00,1.0682
5339.00,1.0682
5338.00,1.0681
5337.00,1.0682
5336.00,1.0683
5335.00,1.0685
5334.00,1.0687
5333.00,1.0689
5332.00,1.0690
5331.00,1.0692
5330.00,1.0693
5329.00,1.0693
5328.00,1.0693
5327.00,1.0692
5326.00,1.0693
5325.00,1.0693
5324.00,1.0694
5323.00,1.0695
5322.00,1.0696
5321.00,1.0696
5320.00,1.0697
5319.00,1.0697
5318.00,1.0696
5317.00,1.0696
5316.00,1.0695
5315.00,1.0694
5314.00,1.0693
5313.00,1.0691
5312.00,1.0690
5311.00,1.0689
5310.00,1.0689
5309.00,1.0688
5308.00,1.0688
5307.00,1.0687
5306.00,1.0687
5305.00,1.0688
5304.00,1.0688
5303.00,1.0688
5302.00,1.0688
5301.00,1.0688
5300.00,1.0688
5299.00,1.0689
5298.00,1.0689
5297.00,1.0689
5296.00,1.0689
5295.00,1.0689
5294.00,1.0689
5293.00,1.0690
5292.00,1.0691
5291.00,1.0692
5290.00,1.0693
5289.00,1.0695
5288.00,1.0696
5287.00,1.0696
5286.00,1.0696
5285.00,1.0696
5284.00,1.0697
5283.00,1.0698
5282.00,1.0699
5281.00,1.0699
5280.00,1.0699
5279.00,1.0700
5278.00,1.0700
5277.00,1.0701
5276.00,1.0702
5275.00,1.0703
5274.00,1.0704
5273.00,1.0704
5272.00,1.0703
5271.00,1.0702
5270.00,1.0699
5269.00,1.0697
5268.00,1.0695
5267.00,1.0694
5266.00,1.0693
5265.00,1.0692
5264.00,1.0692
5263.00,1.0692
5262.00,1.0693
5261.00,1.0693
5260.00,1.0693
5259.00,1.0693
5258.00,1.0693
5257.00,1.0694
5256.00,1.0694
5255.00,1.0695
5254.00,1.0695
5253.00,1.0695
5252.00,1.0695
5251.00,1.0696
5250.00,1.0695
5249.00,1.0695
5248.00,1.0697
5247.00,1.0699
5246.00,1.0700
5245.00,1.0702
5244.00,1.0703
5243.00,1.0704
5242.00,1.0706
5241.00,1.0707
5240.00,1.0708
5239.00,1.0710
5238.00,1.0711
5237.00,1.0712
5236.00,1.0713
5235.00,1.0714
5234.00,1.0715
5233.00,1.0715
5232.00,1.0714
5231.00,1.0714
5230.00,1.0713
5229.00,1.0713
5228.00,1.0714
5227.00,1.0714
5226.00,1.0714
5225.00,1.0713
5224.00,1.0713
5223.00,1.0714
5222.00,1.0714
5221.00,1.0714
5220.00,1.0714
5219.00,1.0713
5218.00,1.0712
5217.00,1.0711
5216.00,1.0709
5215.00,1.0709
5214.00,1.0709
5213.00,1.0709
5212.00,1.0709
5211.00,1.0709
5210.00,1.0709
5209.00,1.0709
5208.00,1.0710
5207.00,1.0711
5206.00,1.0712
5205.00,1.0713
5204.00,1.0715
5203.00,1.0717
5202.00,1.0719
5201.00,1.0720
5200.00,1.0723
5199.00,1.0725
5198.00,1.0726
5197.00,1.0727
5196.00,1.0727
5195.00,1.0728
5194.00,1.0729
5193.00,1.0730
5192.00,1.0731
5191.00,1.0732
5190.00,1.0732
5189.00,1.0731
5188.00,1.0731
5187.00,1.0730
5186.00,1.0730
5185.00,1.0729
5184.00,1.0730
5183.00,1.0732
5182.00,1.0733
5181.00,1.0733
5180.00,1.0734
5179.00,1.0735
5178.00,1.0735
5177.00,1.0735
5176.00,1.0735
5175.00,1.0735
5174.00,1.0734
5173.00,1.0734
5172.00,1.0733
5171.00,1.0733
5170.00,1.0732
5169.00,1.0732
5168.00,1.0732
5167.00,1.0733
5166.00,1.0733
5165.00,1.0733
5164.00,1.0733
5163.00,1.0734
5162.00,1.0735
5161.00,1.0736
5160.00,1.0737
5159.00,1.0739
5158.00,1.0739
5157.00,1.0740
5156.00,1.0740
5155.00,1.0741
5154.00,1.0742
5153.00,1.0744
5152.00,1.0745
5151.00,1.0746
5150.00,1.0747
5149.00,1.0748
5148.00,1.0749
5147.00,1.0750
5146.00,1.0751
5145.00,1.0753
5144.00,1.0754
5143.00,1.0755
5142.00,1.0756
5141.00,1.0757
5140.00,1.0758
5139.00,1.0759
5138.00,1.0759
5137.00,1.0757
5136.00,1.0756
5135.00,1.0754
5134.00,1.0752
5133.00,1.0752
5132.00,1.0752
5131.00,1.0752
5130.00,1.0753
5129.00,1.0753
5128.00,1.0753
5127.00,1.0753
5126.00,1.0753
5125.00,1.0753
5124.00,1.0753
5123.00,1.0753
5122.00,1.0753
5121.00,1.0752
5120.00,1.0751
5119.00,1.0751
5118.00,1.0751
5117.00,1.0751
5116.00,1.0752
5115.00,1.0753
5114.00,1.0753
5113.00,1.0754
5112.00,1.0756
5111.00,1.0758
5110.00,1.0759
5109.00,1.0761
5108.00,1.0762
5107.00,1.0764
5106.00,1.0765
5105.00,1.0766
5104.00,1.0767
5103.00,1.0768
5102.00,1.0768
5101.00,1.0768
5100.00,1.0768
5099.00,1.0768
5098.00,1.0768
5097.00,1.0768
5096.00,1.0769
5095.00,1.0769
5094.00,1.0769
5093.00,1.0768
5092.00,1.0768
5091.00,1.0767
5090.00,1.0766
5089.00,1.0766
5088.00,1.0765
5087.00,1.0765
5086.00,1.0764
5085.00,1.0763
5084.00,1.0763
5083.00,1.0763
5082.00,1.0763
5081.00,1.0763
5080.00,1.0762
5079.00,1.0761
5078.00,1.0761
5077.00,1.0761
5076.00,1.0761
5075.00,1.0761
5074.00,1.0762
5073.00,1.0762
5072.00,1.0762
5071.00,1.0762
5070.00,1.0763
5069.00,1.0763
5068.00,1.0764
5067.00,1.0766
5066.00,1.0767
5065.00,1.0769
5064.00,1.0770
5063.00,1.0771
5062.00,1.0772
5061.00,1.0772
5060.00,1.0772
5059.00,1.0773
5058.00,1.0773
5057.00,1.0774
5056.00,1.0775
5055.00,1.0777
5054.00,1.0778
5053.00,1.0778
5052.00,1.0778
5051.00,1.0777
5050.00,1.0777
5049.00,1.0777
5048.00,1.0777
5047.00,1.0777
5046.00,1.0776
5045.00,1.0776
5044.00,1.0776
5043.00,1.0775
5042.00,1.0774
5041.00,1.0773
5040.00,1.0772
5039.00,1.0772
5038.00,1.0771
5037.00,1.0771
5036.00,1.0770
5035.00,1.0770
5034.00,1.0770
5033.00,1.0769
5032.00,1.0767
5031.00,1.0766
5030.00,1.0766
5029.00,1.0766
5028.00,1.0766
5027.00,1.0767
5026.00,1.0768
5025.00,1.0769
5024.00,1.0770
5023.00,1.0772
5022.00,1.0773
5021.00,1.0773
5020.00,1.0773
5019.00,1.0774
5018.00,1.0774
5017.00,1.0775
5016.00,1.0775
5015.00,1.0776
5014.00,1.0777
5013.00,1.0777
5012.00,1.0777
5011.00,1.0778
5010.00,1.0779
5009.00,1.0780
5008.00,1.0781
5007.00,1.0782
5006.00,1.0782
5005.00,1.0782
5004.00,1.0781
5003.00,1.0781
5002.00,1.0780
5001.00,1.0780
5000.00,1.0779
4999.00,1.0779
4998.00,1.0778
4997.00,1.0776
4996.00,1.0775
4995.00,1.0774
4994.00,1.0773
4993.00,1.0772
4992.00,1.0772
4991.00,1.0772
4990.00,1.0771
4989.00,1.0770
4988.00,1.0769
4987.00,1.0768
4986.00,1.0767
4985.00,1.0767
4984.00,1.0766
4983.00,1.0767
4982.00,1.0767
4981.00,1.0768
4980.00,1.0768
4979.00,1.0769
4978.00,1.0770
4977.00,1.0770
4976.00,1.0770
4975.00,1.0771
4974.00,1.0772
4973.00,1.0774
4972.00,1.0776
4971.00,1.0777
4970.00,1.0778
4969.00,1.0778
4968.00,1.0778
4967.00,1.0778
4966.00,1.0778
4965.00,1.0778
4964.00,1.0777
4963.00,1.0777
4962.00,1.0777
4961.00,1.0776
4960.00,1.0776
4959.00,1.0776
4958.00,1.0776
4957.00,1.0776
4956.00,1.0776
4955.00,1.0775
4954.00,1.0774
4953.00,1.0773
4952.00,1.0773
4951.00,1.0773
4950.00,1.0773
4949.00,1.0773
4948.00,1.0772
4947.00,1.0772
4946.00,1.0771
4945.00,1.0769
4944.00,1.0768
4943.00,1.0767
4942.00,1.0766
4941.00,1.0765
4940.00,1.0766
4939.00,1.0766
4938.00,1.0767
4937.00,1.0768
4936.00,1.0768
4935.00,1.0768
4934.00,1.0768
4933.00,1.0768
4932.00,1.0769
4931.00,1.0770
4930.00,1.0771
4929.00,1.0772
4928.00,1.0773
4927.00,1.0774
4926.00,1.0775
4925.00,1.0775
4924.00,1.0775
4923.00,1.0776
4922.00,1.0776
4921.00,1.0777
4920.00,1.0777
4919.00,1.0778
4918.00,1.0778
4917.00,1.0777
4916.00,1.0777
4915.00,1.0776
4914.00,1.0775
4913.00,1.0775
4912.00,1.0774
4911.00,1.0773
4910.00,1.0772
4909.00,1.0771
4908.00,1.0770
4907.00,1.0770
4906.00,1.0770
4905.00,1.0770
4904.00,1.0769
4903.00,1.0768
4902.00,1.0767
4901.00,1.0765
4900.00,1.0765
4899.00,1.0765
4898.00,1.0764
4897.00,1.0764
4896.00,1.0763
4895.00,1.0762
4894.00,1.0761
4893.00,1.0761
4892.00,1.0761
4891.00,1.0762
4890.00,1.0763
4889.00,1.0763
4888.00,1.0763
4887.00,1.0764
4886.00,1.0764
4885.00,1.0764
4884.00,1.0765
4883.00,1.0766
4882.00,1.0768
4881.00,1.0768
4880.00,1.0768
4879.00,1.0768
4878.00,1.0769
4877.00,1.0769
4876.00,1.0769
4875.00,1.0770
4874.00,1.0770
4873.00,1.0770
4872.00,1.0769
4871.00,1.0768
4870.00,1.0768
4869.00,1.0767
4868.00,1.0767
4867.00,1.0766
4866.00,1.0764
4865.00,1.0763
4864.00,1.0762
4863.00,1.0762
4862.00,1.0762
4861.00,1.0761
4860.00,1.0761
4859.00,1.0761
4858.00,1.0760
4857.00,1.0760
4856.00,1.0759
4855.00,1.0758
4854.00,1.0757
4853.00,1.0757
4852.00,1.0757
4851.00,1.0757
4850.00,1.0757
4849.00,1.0756
4848.00,1.0756
4847.00,1.0756
4846.00,1.0756
4845.00,1.0756
4844.00,1.0757
4843.00,1.0757
4842.00,1.0758
4841.00,1.0758
4840.00,1.0758
4839.00,1.0758
4838.00,1.0758
4837.00,1.0758
4836.00,1.0758
4835.00,1.0759
4834.00,1.0760
4833.00,1.0761
4832.00,1.0762
4831.00,1.0762
4830.00,1.0763
4829.00,1.0763
4828.00,1.0762
4827.00,1.0762
4826.00,1.0761
4825.00,1.0759
4824.00,1.0758
4823.00,1.0757
4822.00,1.0756
4821.00,1.0755
4820.00,1.0755
4819.00,1.0755
4818.00,1.0754
4817.00,1.0754
4816.00,1.0753
4815.00,1.0752
4814.00,1.0752
4813.00,1.0750
4812.00,1.0749
4811.00,1.0748
4810.00,1.0746
4809.00,1.0746
4808.00,1.0745
4807.00,1.0745
4806.00,1.0745
4805.00,1.0745
4804.00,1.0744
4803.00,1.0744
4802.00,1.0744
4801.00,1.0744
4800.00,1.0744
4799.00,1.0744
4798.00,1.0744
4797.00,1.0744
4796.00,1.0745
4795.00,1.0745
4794.00,1.0745
4793.00,1.0745
4792.00,1.0745
4791.00,1.0744
4790.00,1.0744
4789.00,1.0744
4788.00,1.0744
4787.00,1.0744
4786.00,1.0744
4785.00,1.0745
4784.00,1.0745
4783.00,1.0746
4782.00,1.0746
4781.00,1.0746
4780.00,1.0746
4779.00,1.0745
4778.00,1.0744
4777.00,1.0743
4776.00,1.0741
4775.00,1.0740
4774.00,1.0739
4773.00,1.0738
4772.00,1.0737
4771.00,1.0736
4770.00,1.0735
4769.00,1.0733
4768.00,1.0733
4767.00,1.0732
4766.00,1.0732
4765.00,1.0731
4764.00,1.0731
4763.00,1.0730
4762.00,1.0729
4761.00,1.0728
4760.00,1.0728
4759.00,1.0728
4758.00,1.0729
4757.00,1.0729
4756.00,1.0728
4755.00,1.0728
4754.00,1.0727
4753.00,1.0727
4752.00,1.0726
4751.00,1.0725
4750.00,1.0725
4749.00,1.0724
4748.00,1.0723
4747.00,1.0723
4746.00,1.0723
4745.00,1.0723
4744.00,1.0723
4743.00,1.0722
4742.00,1.0721
4741.00,1.0720
4740.00,1.0720
4739.00,1.0719
4738.00,1.0719
4737.00,1.0719
4736.00,1.0718
4735.00,1.0718
4734.00,1.0717
4733.00,1.0716
4732.00,1.0715
4731.00,1.0714
4730.00,1.0713
4729.00,1.0713
4728.00,1.0712
4727.00,1.0711
4726.00,1.0711
4725.00,1.0710
4724.00,1.0709
4723.00,1.0708
4722.00,1.0707
4721.00,1.0705
4720.00,1.0704
4719.00,1.0703
4718.00,1.0702
4717.00,1.0702
4716.00,1.0702
4715.00,1.0702
4714.00,1.0702
4713.00,1.0701
4712.00,1.0701
4711.00,1.0702
4710.00,1.0703
4709.00,1.0703
4708.00,1.0704
4707.00,1.0704
4706.00,1.0705
4705.00,1.0705
4704.00,1.0706
4703.00,1.0708
4702.00,1.0709
4701.00,1.0710
4700.00,1.0712
4699.00,1.0713
4698.00,1.0713
4697.00,1.0713
4696.00,1.0713
4695.00,1.0712
4694.00,1.0711
4693.00,1.0710
4692.00,1.0709
4691.00,1.0708
4690.00,1.0708
4689.00,1.0707
4688.00,1.0706
4687.00,1.0705
4686.00,1.0705
4685.00,1.0704
4684.00,1.0703
4683.00,1.0703
4682.00,1.0702
4681.00,1.0701
4680.00,1.0700
4679.00,1.0699
4678.00,1.0698
4677.00,1.0697
4676.00,1.0696
4675.00,1.0696
4674.00,1.0696
4673.00,1.0696
4672.00,1.0695
4671.00,1.0695
4670.00,1.0695
4669.00,1.0694
4668.00,1.0695
4667.00,1.0695
4666.00,1.0695
4665.00,1.0695
4664.00,1.0695
4663.00,1.0695
4662.00,1.0695
4661.00,1.0695
4660.00,1.0695
4659.00,1.0696
4658.00,1.0696
4657.00,1.0697
4656.00,1.0698
4655.00,1.0699
4654.00,1.0700
4653.00,1.0701
4652.00,1.0701
4651.00,1.0701
4650.00,1.0701
4649.00,1.0702
4648.00,1.0703
4647.00,1.0704
4646.00,1.0704
4645.00,1.0703
4644.00,1.0702
4643.00,1.0702
4642.00,1.0701
4641.00,1.0701
4640.00,1.0701
4639.00,1.0700
4638.00,1.0700
4637.00,1.0700
4636.00,1.0699
4635.00,1.0699
4634.00,1.0699
4633.00,1.0699
4632.00,1.0698
4631.00,1.0697
4630.00,1.0697
4629.00,1.0696
4628.00,1.0695
4627.00,1.0695
4626.00,1.0695
4625.00,1.0694
4624.00,1.0694
4623.00,1.0694
4622.00,1.0694
4621.00,1.0695
4620.00,1.0695
4619.00,1.0695
4618.00,1.0695
4617.00,1.0695
4616.00,1.0695
4615.00,1.0696
4614.00,1.0696
4613.00,1.0697
4612.00,1.0698
4611.00,1.0699
4610.00,1.0699
4609.00,1.0699
4608.00,1.0700
4607.00,1.0701
4606.00,1.0702
4605.00,1.0703
4604.00,1.0702
4603.00,1.0702
4602.00,1.0701
4601.00,1.0701
4600.00,1.0701
4599.00,1.0701
4598.00,1.0701
4597.00,1.0701
4596.00,1.0701
4595.00,1.0700
4594.00,1.0699
4593.00,1.0699
4592.00,1.0699
4591.00,1.0698
4590.00,1.0698
4589.00,1.0697
4588.00,1.0696
4587.00,1.0695
4586.00,1.0694
4585.00,1.0694
4584.00,1.0693
4583.00,1.0693
4582.00,1.0692
4581.00,1.0692
4580.00,1.0693
4579.00,1.0693
4578.00,1.0694
4577.00,1.0694
4576.00,1.0694
4575.00,1.0694
4574.00,1.0694
4573.00,1.0694
4572.00,1.0695
4571.00,1.0695
4570.00,1.0696
4569.00,1.0697
4568.00,1.0697
4567.00,1.0698
4566.00,1.0698
4565.00,1.0698
4564.00,1.0699
4563.00,1.0700
4562.00,1.0700
4561.00,1.0701
4560.00,1.0702
4559.00,1.0702
4558.00,1.0702
4557.00,1.0701
4556.00,1.0700
4555.00,1.0700
4554.00,1.0700
4553.00,1.0700
4552.00,1.0701
4551.00,1.0701
4550.00,1.0701
4549.00,1.0700
4548.00,1.0699
4547.00,1.0698
4546.00,1.0697
4545.00,1.0696
4544.00,1.0695
4543.00,1.0694
4542.00,1.0693
4541.00,1.0693
4540.00,1.0692
4539.00,1.0692
4538.00,1.0692
4537.00,1.0692
4536.00,1.0692
4535.00,1.0692
4534.00,1.0693
4533.00,1.0693
4532.00,1.0693
4531.00,1.0693
4530.00,1.0693
4529.00,1.0693
4528.00,1.0693
4527.00,1.0693
4526.00,1.0693
4525.00,1.0693
4524.00,1.0693
4523.00,1.0693
4522.00,1.0694
4521.00,1.0694
4520.00,1.0695
4519.00,1.0695
4518.00,1.0696
4517.00,1.0696
4516.00,1.0696
4515.00,1.0696
4514.00,1.0696
4513.00,1.0696
4512.00,1.0696
4511.00,1.0696
4510.00,1.0696
4509.00,1.0697
4508.00,1.0697
4507.00,1.0697
4506.00,1.0697
4505.00,1.0697
4504.00,1.0697
4503.00,1.0697
4502.00,1.0697
4501.00,1.0696
4500.00,1.0695
4499.00,1.0694
4498.00,1.0693
4497.00,1.0692
4496.00,1.0692
4495.00,1.0691
4494.00,1.0690
4493.00,1.0689
4492.00,1.0689
4491.00,1.0688
4490.00,1.0688
4489.00,1.0688
4488.00,1.0688
4487.00,1.0688
4486.00,1.0688
4485.00,1.0688
4484.00,1.0689
4483.00,1.0689
4482.00,1.0689
4481.00,1.0689
4480.00,1.0689
4479.00,1.0690
4478.00,1.0690
4477.00,1.0691
4476.00,1.0692
4475.00,1.0694
4474.00,1.0695
4473.00,1.0696
4472.00,1.0697
4471.00,1.0697
4470.00,1.0698
4469.00,1.0698
4468.00,1.0698
4467.00,1.0698
4466.00,1.0697
4465.00,1.0697
4464.00,1.0697
4463.00,1.0697
4462.00,1.0698
4461.00,1.0698
4460.00,1.0698
4459.00,1.0698
4458.00,1.0697
4457.00,1.0697
4456.00,1.0696
4455.00,1.0695
4454.00,1.0694
4453.00,1.0694
4452.00,1.0693
4451.00,1.0692
4450.00,1.0691
4449.00,1.0691
4448.00,1.0690
4447.00,1.0690
4446.00,1.0690
4445.00,1.0690
4444.00,1.0690
4443.00,1.0690
4442.00,1.0690
4441.00,1.0690
4440.00,1.0689
4439.00,1.0689
4438.00,1.0689
4437.00,1.0689
4436.00,1.0690
4435.00,1.0690
4434.00,1.0691
4433.00,1.0691
4432.00,1.0691
4431.00,1.0692
4430.00,1.0692
4429.00,1.0693
4428.00,1.0694
4427.00,1.0695
4426.00,1.0696
4425.00,1.0696
4424.00,1.0696
4423.00,1.0696
4422.00,1.0696
4421.00,1.0697
4420.00,1.0697
4419.00,1.0697
4418.00,1.0697
4417.00,1.0696
4416.00,1.0696
4415.00,1.0696
4414.00,1.0697
4413.00,1.0697
4412.00,1.0696
4411.00,1.0695
4410.00,1.0695
4409.00,1.0694
4408.00,1.0694
4407.00,1.0694
4406.00,1.0693
4405.00,1.0693
4404.00,1.0692
4403.00,1.0692
4402.00,1.0691
4401.00,1.0691
4400.00,1.0690
4399.00,1.0690
4398.00,1.0690
4397.00,1.0689
4396.00,1.0689
4395.00,1.0689
4394.00,1.0689
4393.00,1.0689
4392.00,1.0690
4391.00,1.0690
4390.00,1.0691
4389.00,1.0692
4388.00,1.0692
4387.00,1.0693
4386.00,1.0694
4385.00,1.0694
4384.00,1.0694
4383.00,1.0694
4382.00,1.0695
4381.00,1.0696
4380.00,1.0697
4379.00,1.0698
4378.00,1.0698
4377.00,1.0698
4376.00,1.0699
4375.00,1.0699
4374.00,1.0700
4373.00,1.0701
4372.00,1.0701
4371.00,1.0701
4370.00,1.0700
4369.00,1.0700
4368.00,1.0699
4367.00,1.0699
4366.00,1.0699
4365.00,1.0699
4364.00,1.0698
4363.00,1.0697
4362.00,1.0697
4361.00,1.0696
4360.00,1.0696
4359.00,1.0696
4358.00,1.0696
4357.00,1.0696
4356.00,1.0695
4355.00,1.0695
4354.00,1.0694
4353.00,1.0694
4352.00,1.0694
4351.00,1.0694
4350.00,1.0694
4349.00,1.0694
4348.00,1.0695
4347.00,1.0696
4346.00,1.0697
4345.00,1.0698
4344.00,1.0699
4343.00,1.0699
4342.00,1.0700
4341.00,1.0700
4340.00,1.0700
4339.00,1.0700
4338.00,1.0700
4337.00,1.0701
4336.00,1.0701
4335.00,1.0703
4334.00,1.0703
4333.00,1.0704
4332.00,1.0705
4331.00,1.0706
4330.00,1.0706
4329.00,1.0707
4328.00,1.0707
4327.00,1.0707
4326.00,1.0706
4325.00,1.0705
4324.00,1.0704
4323.00,1.0703
4322.00,1.0702
4321.00,1.0702
4320.00,1.0701
4319.00,1.0701
4318.00,1.0701
4317.00,1.0700
4316.00,1.0700
4315.00,1.0700
4314.00,1.0700
4313.00,1.0700
4312.00,1.0700
4311.00,1.0700
4310.00,1.0699
4309.00,1.0698
4308.00,1.0698
4307.00,1.0698
4306.00,1.0698
4305.00,1.0699
4304.00,1.0699
4303.00,1.0699
4302.00,1.0700
4301.00,1.0700
4300.00,1.0700
4299.00,1.0701
4298.00,1.0702
4297.00,1.0703
4296.00,1.0704
4295.00,1.0705
4294.00,1.0705
4293.00,1.0706
4292.00,1.0707
4291.00,1.0707
4290.00,1.0708
4289.00,1.0709
4288.00,1.0710
4287.00,1.0710
4286.00,1.0711
4285.00,1.0711
4284.00,1.0712
4283.00,1.0713
4282.00,1.0713
4281.00,1.0713
4280.00,1.0713
4279.00,1.0712
4278.00,1.0712
4277.00,1.0712
4276.00,1.0712
4275.00,1.0711
4274.00,1.0711
4273.00,1.0709
4272.00,1.0708
4271.00,1.0707
4270.00,1.0706
4269.00,1.0706
4268.00,1.0706
4267.00,1.0705
4266.00,1.0704
4265.00,1.0703
4264.00,1.0702
4263.00,1.0702
4262.00,1.0702
4261.00,1.0703
4260.00,1.0703
4259.00,1.0703
4258.00,1.0704
4257.00,1.0705
4256.00,1.0705
4255.00,1.0706
4254.00,1.0707
4253.00,1.0707
4252.00,1.0708
4251.00,1.0708
4250.00,1.0709
4249.00,1.0710
4248.00,1.0711
4247.00,1.0712
4246.00,1.0712
4245.00,1.0713
4244.00,1.0714
4243.00,1.0715
4242.00,1.0715
4241.00,1.0715
4240.00,1.0715
4239.00,1.0715
4238.00,1.0714
4237.00,1.0714
4236.00,1.0714
4235.00,1.0715
4234.00,1.0715
4233.00,1.0714
4232.00,1.0713
4231.00,1.0712
4230.00,1.0711
4229.00,1.0711
4228.00,1.0711
4227.00,1.0711
4226.00,1.0711
4225.00,1.0710
4224.00,1.0709
4223.00,1.0709
4222.00,1.0708
4221.00,1.0708
4220.00,1.0707
4219.00,1.0706
4218.00,1.0705
4217.00,1.0704
4216.00,1.0704
4215.00,1.0705
4214.00,1.0705
4213.00,1.0705
4212.00,1.0706
4211.00,1.0706
4210.00,1.0706
4209.00,1.0706
4208.00,1.0707
4207.00,1.0708
4206.00,1.0708
4205.00,1.0708
4204.00,1.0708
4203.00,1.0709
4202.00,1.0710
4201.00,1.0712
4200.00,1.0713
4199.00,1.0714
4198.00,1.0715
4197.00,1.0716
4196.00,1.0716
4195.00,1.0717
4194.00,1.0717
4193.00,1.0718
4192.00,1.0718
4191.00,1.0718
4190.00,1.0717
4189.00,1.0716
4188.00,1.0715
4187.00,1.0714
4186.00,1.0713
4185.00,1.0713
4184.00,1.0712
4183.00,1.0711
4182.00,1.0710
4181.00,1.0709
4180.00,1.0709
4179.00,1.0709
4178.00,1.0708
4177.00,1.0708
4176.00,1.0707
4175.00,1.0707
4174.00,1.0706
4173.00,1.0706
4172.00,1.0705
4171.00,1.0705
4170.00,1.0705
4169.00,1.0705
4168.00,1.0705
4167.00,1.0705
4166.00,1.0705
4165.00,1.0705
4164.00,1.0706
4163.00,1.0707
4162.00,1.0707
4161.00,1.0708
4160.00,1.0709
4159.00,1.0710
4158.00,1.0711
4157.00,1.0712
4156.00,1.0712
4155.00,1.0713
4154.00,1.0713
4153.00,1.0714
4152.00,1.0714
4151.00,1.0715
4150.00,1.0715
4149.00,1.0715
4148.00,1.0715
4147.00,1.0716
4146.00,1.0716
4145.00,1.0716
4144.00,1.0715
4143.00,1.0715
4142.00,1.0714
4141.00,1.0713
4140.00,1.0712
4139.00,1.0712
4138.00,1.0711
4137.00,1.0710
4136.00,1.0709
4135.00,1.0708
4134.00,1.0706
4133.00,1.0704
4132.00,1.0703
4131.00,1.0702
4130.00,1.0702
4129.00,1.0702
4128.00,1.0701
4127.00,1.0701
4126.00,1.0701
4125.00,1.0701
4124.00,1.0702
4123.00,1.0702
4122.00,1.0701
4121.00,1.0700
4120.00,1.0700
4119.00,1.0700
4118.00,1.0701
4117.00,1.0702
4116.00,1.0702
4115.00,1.0703
4114.00,1.0704
4113.00,1.0705
4112.00,1.0707
4111.00,1.0709
4110.00,1.0711
4109.00,1.0711
4108.00,1.0711
4107.00,1.0710
4106.00,1.0710
4105.00,1.0711
4104.00,1.0711
4103.00,1.0711
4102.00,1.0711
4101.00,1.0710
4100.00,1.0710
4099.00,1.0710
4098.00,1.0710
4097.00,1.0709
4096.00,1.0708
4095.00,1.0707
4094.00,1.0707
4093.00,1.0706
4092.00,1.0705
4091.00,1.0705
4090.00,1.0704
4089.00,1.0703
4088.00,1.0703
4087.00,1.0702
4086.00,1.0700
4085.00,1.0699
4084.00,1.0699
4083.00,1.0699
4082.00,1.0699
4081.00,1.0698
4080.00,1.0698
4079.00,1.0698
4078.00,1.0698
4077.00,1.0699
4076.00,1.0699
4075.00,1.0699
4074.00,1.0700
4073.00,1.0700
4072.00,1.0700
4071.00,1.0701
4070.00,1.0701
4069.00,1.0701
4068.00,1.0701
4067.00,1.0702
4066.00,1.0703
4065.00,1.0704
4064.00,1.0705
4063.00,1.0706
4062.00,1.0708
4061.00,1.0709
4060.00,1.0709
4059.00,1.0709
4058.00,1.0709
4057.00,1.0709
4056.00,1.0709
4055.00,1.0709
4054.00,1.0708
4053.00,1.0708
4052.00,1.0707
4051.00,1.0706
4050.00,1.0705
4049.00,1.0704
4048.00,1.0703
4047.00,1.0703
4046.00,1.0702
4045.00,1.0701
4044.00,1.0700
4043.00,1.0699
4042.00,1.0698
4041.00,1.0697
4040.00,1.0695
4039.00,1.0694
4038.00,1.0693
4037.00,1.0692
4036.00,1.0692
4035.00,1.0692
4034.00,1.0692
4033.00,1.0693
4032.00,1.0693
4031.00,1.0692
4030.00,1.0692
4029.00,1.0693
4028.00,1.0693
4027.00,1.0694
4026.00,1.0695
4025.00,1.0695
4024.00,1.0695
4023.00,1.0696
4022.00,1.0696
4021.00,1.0697
4020.00,1.0698
4019.00,1.0699
4018.00,1.0700
4017.00,1.0700
4016.00,1.0699
4015.00,1.0699
4014.00,1.0699
4013.00,1.0699
4012.00,1.0700
4011.00,1.0700
4010.00,1.0700
4009.00,1.0700
4008.00,1.0699
4007.00,1.0699
4006.00,1.0699
4005.00,1.0699
4004.00,1.0698
4003.00,1.0696
4002.00,1.0694
4001.00,1.0692
4000.00,1.0691
3999.00,1.0691
3998.00,1.0691
3997.00,1.0691
3996.00,1.0691
3995.00,1.0691
3994.00,1.0690
3993.00,1.0690
3992.00,1.0689
3991.00,1.0688
3990.00,1.0687
3989.00,1.0686
3988.00,1.0685
3987.00,1.0685
3986.00,1.0684
3985.00,1.0684
3984.00,1.0685
3983.00,1.0685
3982.00,1.0685
3981.00,1.0686
3980.00,1.0686
3979.00,1.0687
3978.00,1.0688
3977.00,1.0689
3976.00,1.0690
3975.00,1.0691
3974.00,1.0692
3973.00,1.0692
3972.00,1.0693
3971.00,1.0693
3970.00,1.0692
3969.00,1.0692
3968.00,1.0691
3967.00,1.0690
3966.00,1.0690
3965.00,1.0690
3964.00,1.0690
3963.00,1.0690
3962.00,1.0690
3961.00,1.0689
3960.00,1.0688
3959.00,1.0687
3958.00,1.0686
3957.00,1.0685
3956.00,1.0684
3955.00,1.0683
3954.00,1.0682
3953.00,1.0681
3952.00,1.0680
3951.00,1.0679
3950.00,1.0678
3949.00,1.0676
3948.00,1.0675
3947.00,1.0675
3946.00,1.0675
3945.00,1.0674
3944.00,1.0674
3943.00,1.0673
3942.00,1.0673
3941.00,1.0672
3940.00,1.0672
3939.00,1.0671
3938.00,1.0671
3937.00,1.0671
3936.00,1.0671
3935.00,1.0671
3934.00,1.0670
3933.00,1.0669
3932.00,1.0670
3931.00,1.0671
3930.00,1.0672
3929.00,1.0673
3928.00,1.0675
3927.00,1.0676
3926.00,1.0676
3925.00,1.0676
3924.00,1.0677
3923.00,1.0676
3922.00,1.0675
3921.00,1.0673
3920.00,1.0672
3919.00,1.0671
3918.00,1.0670
3917.00,1.0669
3916.00,1.0668
3915.00,1.0668
3914.00,1.0667
3913.00,1.0666
3912.00,1.0666
3911.00,1.0665
3910.00,1.0665
3909.00,1.0664
3908.00,1.0664
3907.00,1.0662
3906.00,1.0660
3905.00,1.0657
3904.00,1.0654
3903.00,1.0651
3902.00,1.0649
3901.00,1.0647
3900.00,1.0645
3899.00,1.0645
3898.00,1.0646
3897.00,1.0647
3896.00,1.0649
3895.00,1.0651
3894.00,1.0652
3893.00,1.0652
3892.00,1.0651
3891.00,1.0650
3890.00,1.0649
3889.00,1.0648
3888.00,1.0647
3887.00,1.0645
3886.00,1.0646
3885.00,1.0649
3884.00,1.0653
3883.00,1.0655
3882.00,1.0655
3881.00,1.0654
3880.00,1.0654
3879.00,1.0654
3878.00,1.0654
3877.00,1.0653
3876.00,1.0652
3875.00,1.0650
3874.00,1.0650
3873.00,1.0651
3872.00,1.0649
3871.00,1.0645
3870.00,1.0642
3869.00,1.0642
3868.00,1.0644
3867.00,1.0643
3866.00,1.0641
3865.00,1.0640
3864.00,1.0640
3863.00,1.0639
3862.00,1.0637
3861.00,1.0635
3860.00,1.0633
3859.00,1.0631
3858.00,1.0628
3857.00,1.0627
3856.00,1.0628
3855.00,1.0627
3854.00,1.0625
3853.00,1.0623
3852.00,1.0623
3851.00,1.0622
3850.00,1.0621
3849.00,1.0621
3848.00,1.0622
3847.00,1.0623
3846.00,1.0624
3845.00,1.0625
3844.00,1.0625
3843.00,1.0624
3842.00,1.0624
3841.00,1.0624
3840.00,1.0623
3839.00,1.0624
3838.00,1.0625
3837.00,1.0626
3836.00,1.0626
3835.00,1.0627
3834.00,1.0627
3833.00,1.0626
3832.00,1.0625
3831.00,1.0625
3830.00,1.0625
3829.00,1.0625
3828.00,1.0624
3827.00,1.0623
3826.00,1.0623
3825.00,1.0624
3824.00,1.0625
3823.00,1.0623
3822.00,1.0619
3821.00,1.0617
3820.00,1.0616
3819.00,1.0615
3818.00,1.0611
3817.00,1.0608
3816.00,1.0606
3815.00,1.0608
3814.00,1.0609
3813.00,1.0608
3812.00,1.0606
3811.00,1.0605
3810.00,1.0604
3809.00,1.0604
3808.00,1.0602
3807.00,1.0601
3806.00,1.0600
3805.00,1.0600
3804.00,1.0599
3803.00,1.0597
3802.00,1.0598
3801.00,1.0602
3800.00,1.0605
3799.00,1.0606
3798.00,1.0604
3797.00,1.0603
3796.00,1.0602
3795.00,1.0603
3794.00,1.0604
3793.00,1.0604
3792.00,1.0604
3791.00,1.0605
3790.00,1.0605
3789.00,1.0606
3788.00,1.0607
3787.00,1.0608
3786.00,1.0608
3785.00,1.0607
3784.00,1.0606
3783.00,1.0605
3782.00,1.0604
3781.00,1.0603
3780.00,1.0601
3779.00,1.0601
3778.00,1.0601
3777.00,1.0600
3776.00,1.0598
3775.00,1.0597
3774.00,1.0597
3773.00,1.0596
3772.00,1.0594
3771.00,1.0591
3770.00,1.0589
3769.00,1.0588
3768.00,1.0587
3767.00,1.0585
3766.00,1.0583
3765.00,1.0583
3764.00,1.0584
3763.00,1.0584
3762.00,1.0583
3761.00,1.0582
3760.00,1.0583
3759.00,1.0583
3758.00,1.0582
3757.00,1.0580
3756.00,1.0578
3755.00,1.0576
3754.00,1.0574
3753.00,1.0572
3752.00,1.0572
3751.00,1.0572
3750.00,1.0571
3749.00,1.0571
3748.00,1.0571
3747.00,1.0571
3746.00,1.0571
3745.00,1.0571
3744.00,1.0575
3743.00,1.0580
3742.00,1.0581
3741.00,1.0579
3740.00,1.0578
3739.00,1.0579
3738.00,1.0580
3737.00,1.0581
3736.00,1.0582
3735.00,1.0582
3734.00,1.0582
3733.00,1.0580
3732.00,1.0580
3731.00,1.0581
3730.00,1.0582
3729.00,1.0583
3728.00,1.0582
3727.00,1.0582
3726.00,1.0583
3725.00,1.0583
3724.00,1.0581
3723.00,1.0580
3722.00,1.0579
3721.00,1.0578
3720.00,1.0576
3719.00,1.0575
3718.00,1.0573
3717.00,1.0573
3716.00,1.0572
3715.00,1.0571
3714.00,1.0570
3713.00,1.0570
3712.00,1.0570
3711.00,1.0571
3710.00,1.0572
3709.00,1.0573
3708.00,1.0574
3707.00,1.0576
3706.00,1.0578
3705.00,1.0580
3704.00,1.0582
3703.00,1.0583
3702.00,1.0584
3701.00,1.0586
3700.00,1.0588
3699.00,1.0589
3698.00,1.0589
3697.00,1.0590
3696.00,1.0592
3695.00,1.0593
3694.00,1.0594
3693.00,1.0594
3692.00,1.0594
3691.00,1.0592
3690.00,1.0591
3689.00,1.0589
3688.00,1.0588
3687.00,1.0589
3686.00,1.0590
3685.00,1.0590
3684.00,1.0590
3683.00,1.0590
3682.00,1.0591
3681.00,1.0590
3680.00,1.0589
3679.00,1.0589
3678.00,1.0589
3677.00,1.0588
3676.00,1.0587
3675.00,1.0587
3674.00,1.0589
3673.00,1.0590
3672.00,1.0590
3671.00,1.0590
3670.00,1.0592
3669.00,1.0595
3668.00,1.0597
3667.00,1.0600
3666.00,1.0602
3665.00,1.0605
3664.00,1.0609
3663.00,1.0612
3662.00,1.0615
3661.00,1.0618
3660.00,1.0620
3659.00,1.0622
3658.00,1.0623
3657.00,1.0624
3656.00,1.0626
3655.00,1.0629
3654.00,1.0632
3653.00,1.0632
3652.00,1.0631
3651.00,1.0632
3650.00,1.0634
3649.00,1.0637
3648.00,1.0639
3647.00,1.0642
3646.00,1.0645
3645.00,1.0648
3644.00,1.0650
3643.00,1.0653
3642.00,1.0655
3641.00,1.0658
3640.00,1.0660
3639.00,1.0660
3638.00,1.0660
3637.00,1.0661
3636.00,1.0662
3635.00,1.0663
3634.00,1.0664
3633.00,1.0664
3632.00,1.0665
3631.00,1.0663
3630.00,1.0662
3629.00,1.0662
3628.00,1.0665
3627.00,1.0668
3626.00,1.0671
3625.00,1.0673
3624.00,1.0675
3623.00,1.0678
3622.00,1.0681
3621.00,1.0684
3620.00,1.0686
3619.00,1.0688
3618.00,1.0689
3617.00,1.0691
3616.00,1.0692
3615.00,1.0693
3614.00,1.0694
3613.00,1.0696
3612.00,1.0698
3611.00,1.0699
3610.00,1.0701
3609.00,1.0703
3608.00,1.0706
3607.00,1.0710
3606.00,1.0714
3605.00,1.0718
3604.00,1.0721
3603.00,1.0723
3602.00,1.0725
3601.00,1.0727
3600.00,1.0728
3599.00,1.0730
3598.00,1.0731
3597.00,1.0732
3596.00,1.0731
3595.00,1.0731
3594.00,1.0730
3593.00,1.0729
3592.00,1.0728
3591.00,1.0728
3590.00,1.0727
3589.00,1.0726
3588.00,1.0726
3587.00,1.0726
3586.00,1.0727
3585.00,1.0727
3584.00,1.0727
3583.00,1.0728
3582.00,1.0728
3581.00,1.0729
3580.00,1.0731
3579.00,1.0732
3578.00,1.0733
3577.00,1.0734
3576.00,1.0735
3575.00,1.0736
3574.00,1.0737
3573.00,1.0739
3572.00,1.0741
3571.00,1.0743
3570.00,1.0745
3569.00,1.0745
3568.00,1.0745
3567.00,1.0745
3566.00,1.0746
3565.00,1.0747
3564.00,1.0749
3563.00,1.0750
3562.00,1.0752
3561.00,1.0754
3560.00,1.0756
3559.00,1.0758
3558.00,1.0760
3557.00,1.0762
3556.00,1.0763
3555.00,1.0762
3554.00,1.0761
3553.00,1.0759
3552.00,1.0758
3551.00,1.0757
3550.00,1.0756
3549.00,1.0755
3548.00,1.0754
3547.00,1.0753
3546.00,1.0753
3545.00,1.0754
3544.00,1.0754
3543.00,1.0755
3542.00,1.0756
3541.00,1.0757
3540.00,1.0757
3539.00,1.0757
3538.00,1.0756
3537.00,1.0756
3536.00,1.0756
3535.00,1.0756
3534.00,1.0756
3533.00,1.0758
3532.00,1.0759
3531.00,1.0761
3530.00,1.0763
3529.00,1.0764
3528.00,1.0766
3527.00,1.0768
3526.00,1.0769
3525.00,1.0771
3524.00,1.0773
3523.00,1.0776
3522.00,1.0778
3521.00,1.0780
3520.00,1.0782
3519.00,1.0784
3518.00,1.0786
3517.00,1.0788
3516.00,1.0790
3515.00,1.0792
3514.00,1.0794
3513.00,1.0796
3512.00,1.0798
3511.00,1.0800
3510.00,1.0802
3509.00,1.0803
3508.00,1.0804
3507.00,1.0805
3506.00,1.0806
3505.00,1.0806
3504.00,1.0806
3503.00,1.0807
3502.00,1.0809
3501.00,1.0810
3500.00,1.0811
3499.00,1.0812
3498.00,1.0813
3497.00,1.0815
3496.00,1.0816
3495.00,1.0818
3494.00,1.0820
3493.00,1.0823
3492.00,1.0825
3491.00,1.0828
3490.00,1.0830
3489.00,1.0832
3488.00,1.0834
3487.00,1.0836
3486.00,1.0839
3485.00,1.0842
3484.00,1.0844
3483.00,1.0847
3482.00,1.0849
3481.00,1.0852
3480.00,1.0855
3479.00,1.0858
3478.00,1.0862
3477.00,1.0867
3476.00,1.0871
3475.00,1.0876
3474.00,1.0879
3473.00,1.0882
3472.00,1.0885
3471.00,1.0887
3470.00,1.0889
3469.00,1.0892
3468.00,1.0895
3467.00,1.0898
3466.00,1.0902
3465.00,1.0906
3464.00,1.0909
3463.00,1.0912
3462.00,1.0915
3461.00,1.0917
3460.00,1.0919
3459.00,1.0921
3458.00,1.0923
3457.00,1.0925
3456.00,1.0927
3455.00,1.0929
3454.00,1.0931
3453.00,1.0932
3452.00,1.0932
3451.00,1.0934
3450.00,1.0936
3449.00,1.0938
3448.00,1.0941
3447.00,1.0943
3446.00,1.0946
3445.00,1.0948
3444.00,1.0951
3443.00,1.0954
3442.00,1.0958
3441.00,1.0961
3440.00,1.0963
3439.00,1.0965
3438.00,1.0967
3437.00,1.0970
3436.00,1.0973
3435.00,1.0977
3434.00,1.0982
3433.00,1.0986
3432.00,1.0990
3431.00,1.0993
3430.00,1.0996
3429.00,1.0999
3428.00,1.1003
3427.00,1.1006
3426.00,1.1009
3425.00,1.1012
3424.00,1.1014
3423.00,1.1016
3422.00,1.1018
3421.00,1.1020
3420.00,1.1022
3419.00,1.1023
3418.00,1.1024
3417.00,1.1025
3416.00,1.1026
3415.00,1.1027
3414.00,1.1028
3413.00,1.1028
3412.00,1.1029
3411.00,1.1030
3410.00,1.1031
3409.00,1.1031
3408.00,1.1033
3407.00,1.1034
3406.00,1.1035
3405.00,1.1035
3404.00,1.1034
3403.00,1.1033
3402.00,1.1032
3401.00,1.1032
3400.00,1.1034
3399.00,1.1036
3398.00,1.1038
3397.00,1.1041
3396.00,1.1043
3395.00,1.1044
3394.00,1.1045
3393.00,1.1046
3392.00,1.1046
3391.00,1.1047
3390.00,1.1049
3389.00,1.1052
3388.00,1.1055
3387.00,1.1059
3386.00,1.1062
3385.00,1.1064
3384.00,1.1066
3383.00,1.1067
3382.00,1.1067
3381.00,1.1068
3380.00,1.1070
3379.00,1.1071
3378.00,1.1073
3377.00,1.1074
3376.00,1.1075
3375.00,1.1075
3374.00,1.1075
3373.00,1.1075
3372.00,1.1074
3371.00,1.1073
3370.00,1.1072
3369.00,1.1071
3368.00,1.1070
3367.00,1.1070
3366.00,1.1071
3365.00,1.1071
3364.00,1.1072
3363.00,1.1072
3362.00,1.1071
3361.00,1.1071
3360.00,1.1071
3359.00,1.1070
3358.00,1.1070
3357.00,1.1070
3356.00,1.1071
3355.00,1.1071
3354.00,1.1072
3353.00,1.1072
3352.00,1.1072
3351.00,1.1073
3350.00,1.1073
3349.00,1.1074
3348.00,1.1075
3347.00,1.1076
3346.00,1.1077
3345.00,1.1078
3344.00,1.1078
3343.00,1.1079
3342.00,1.1080
3341.00,1.1083
3340.00,1.1085
3339.00,1.1088
3338.00,1.1090
3337.00,1.1091
3336.00,1.1091
3335.00,1.1091
3334.00,1.1092
3333.00,1.1092
3332.00,1.1093
3331.00,1.1093
3330.00,1.1094
3329.00,1.1095
3328.00,1.1096
3327.00,1.1096
3326.00,1.1097
3325.00,1.1097
3324.00,1.1097
3323.00,1.1096
3322.00,1.1096
3321.00,1.1095
3320.00,1.1095
3319.00,1.1095
3318.00,1.1095
3317.00,1.1095
3316.00,1.1094
3315.00,1.1093
3314.00,1.1092
3313.00,1.1092
3312.00,1.1092
3311.00,1.1092
3310.00,1.1092
3309.00,1.1092
3308.00,1.1091
3307.00,1.1090
3306.00,1.1090
3305.00,1.1092
3304.00,1.1094
3303.00,1.1097
3302.00,1.1099
3301.00,1.1101
3300.00,1.1102
3299.00,1.1103
3298.00,1.1105
3297.00,1.1107
3296.00,1.1109
3295.00,1.1110
3294.00,1.1111
3293.00,1.1112
3292.00,1.1114
3291.00,1.1116
3290.00,1.1119
3289.00,1.1121
3288.00,1.1122
3287.00,1.1123
3286.00,1.1124
3285.00,1.1124
3284.00,1.1124
3283.00,1.1124
3282.00,1.1124
3281.00,1.1124
3280.00,1.1124
3279.00,1.1124
3278.00,1.1124
3277.00,1.1124
3276.00,1.1125
3275.00,1.1125
3274.00,1.1124
3273.00,1.1123
3272.00,1.1122
3271.00,1.1122
3270.00,1.1122
3269.00,1.1122
3268.00,1.1123
3267.00,1.1123
3266.00,1.1124
3265.00,1.1124
3264.00,1.1124
3263.00,1.1125
3262.00,1.1127
3261.00,1.1128
3260.00,1.1130
3259.00,1.1131
3258.00,1.1132
3257.00,1.1132
3256.00,1.1133
3255.00,1.1134
3254.00,1.1135
3253.00,1.1136
3252.00,1.1138
3251.00,1.1139
3250.00,1.1141
3249.00,1.1142
3248.00,1.1144
3247.00,1.1145
3246.00,1.1147
3245.00,1.1149
3244.00,1.1151
3243.00,1.1153
3242.00,1.1155
3241.00,1.1157
3240.00,1.1158
3239.00,1.1159
3238.00,1.1160
3237.00,1.1159
3236.00,1.1158
3235.00,1.1157
3234.00,1.1156
3233.00,1.1156
3232.00,1.1156
3231.00,1.1156
3230.00,1.1157
3229.00,1.1157
3228.00,1.1156
3227.00,1.1156
3226.00,1.1155
3225.00,1.1155
3224.00,1.1154
3223.00,1.1153
3222.00,1.1152
3221.00,1.1151
3220.00,1.1150
3219.00,1.1150
3218.00,1.1150
3217.00,1.1150
3216.00,1.1151
3215.00,1.1152
3214.00,1.1153
3213.00,1.1154
3212.00,1.1155
3211.00,1.1156
3210.00,1.1157
3209.00,1.1157
3208.00,1.1159
3207.00,1.1160
3206.00,1.1161
3205.00,1.1163
3204.00,1.1164
3203.00,1.1165
3202.00,1.1166
3201.00,1.1167
3200.00,1.1168
3199.00,1.1169
3198.00,1.1169
3197.00,1.1169
3196.00,1.1169
3195.00,1.1169
3194.00,1.1169
3193.00,1.1170
3192.00,1.1170
3191.00,1.1169
3190.00,1.1169
3189.00,1.1168
3188.00,1.1167
3187.00,1.1167
3186.00,1.1166
3185.00,1.1165
3184.00,1.1165
3183.00,1.1164
3182.00,1.1163
3181.00,1.1163
3180.00,1.1162
3179.00,1.1162
3178.00,1.1161
3177.00,1.1160
3176.00,1.1159
3175.00,1.1158
3174.00,1.1157
3173.00,1.1157
3172.00,1.1158
3171.00,1.1158
3170.00,1.1159
3169.00,1.1159
3168.00,1.1160
3167.00,1.1160
3166.00,1.1161
3165.00,1.1162
3164.00,1.1162
3163.00,1.1163
3162.00,1.1164
3161.00,1.1165
3160.00,1.1166
3159.00,1.1168
3158.00,1.1170
3157.00,1.1172
3156.00,1.1173
3155.00,1.1174
3154.00,1.1174
3153.00,1.1174
3152.00,1.1175
3151.00,1.1176
3150.00,1.1178
3149.00,1.1178
3148.00,1.1179
3147.00,1.1179
3146.00,1.1179
3145.00,1.1178
3144.00,1.1178
3143.00,1.1177
3142.00,1.1176
3141.00,1.1175
3140.00,1.1174
3139.00,1.1174
3138.00,1.1174
3137.00,1.1174
3136.00,1.1174
3135.00,1.1173
3134.00,1.1172
3133.00,1.1171
3132.00,1.1171
3131.00,1.1170
3130.00,1.1170
3129.00,1.1170
3128.00,1.1170
3127.00,1.1170
3126.00,1.1170
3125.00,1.1170
3124.00,1.1171
3123.00,1.1172
3122.00,1.1173
3121.00,1.1173
3120.00,1.1173
3119.00,1.1172
3118.00,1.1172
3117.00,1.1172
3116.00,1.1173
3115.00,1.1175
3114.00,1.1176
3113.00,1.1178
3112.00,1.1179
3111.00,1.1181
3110.00,1.1184
3109.00,1.1186
3108.00,1.1188
3107.00,1.1188
3106.00,1.1189
3105.00,1.1188
3104.00,1.1188
3103.00,1.1188
3102.00,1.1187
3101.00,1.1187
3100.00,1.1186
3099.00,1.1186
3098.00,1.1185
3097.00,1.1185
3096.00,1.1185
3095.00,1.1184
3094.00,1.1184
3093.00,1.1183
3092.00,1.1181
3091.00,1.1179
3090.00,1.1177
3089.00,1.1175
3088.00,1.1174
3087.00,1.1172
3086.00,1.1170
3085.00,1.1169
3084.00,1.1168
3083.00,1.1167
3082.00,1.1167
3081.00,1.1166
3080.00,1.1165
3079.00,1.1165
3078.00,1.1165
3077.00,1.1166
3076.00,1.1168
3075.00,1.1169
3074.00,1.1171
3073.00,1.1172
3072.00,1.1173
3071.00,1.1173
3070.00,1.1173
3069.00,1.1174
3068.00,1.1174
3067.00,1.1174
3066.00,1.1175
3065.00,1.1176
3064.00,1.1176
3063.00,1.1178
3062.00,1.1179
3061.00,1.1180
3060.00,1.1180
3059.00,1.1179
3058.00,1.1179
3057.00,1.1178
3056.00,1.1178
3055.00,1.1177
3054.00,1.1176
3053.00,1.1175
3052.00,1.1174
3051.00,1.1173
3050.00,1.1172
3049.00,1.1171
3048.00,1.1170
3047.00,1.1168
3046.00,1.1167
3045.00,1.1165
3044.00,1.1163
3043.00,1.1162
3042.00,1.1161
3041.00,1.1161
3040.00,1.1162
3039.00,1.1162
3038.00,1.1161
3037.00,1.1160
3036.00,1.1159
3035.00,1.1158
3034.00,1.1157
3033.00,1.1157
3032.00,1.1157
3031.00,1.1157
3030.00,1.1158
3029.00,1.1158
3028.00,1.1158
3027.00,1.1159
3026.00,1.1159
3025.00,1.1160
3024.00,1.1161
3023.00,1.1162
3022.00,1.1163
3021.00,1.1164
3020.00,1.1165
3019.00,1.1166
3018.00,1.1166
3017.00,1.1166
3016.00,1.1166
3015.00,1.1166
3014.00,1.1167
3013.00,1.1168
3012.00,1.1169
3011.00,1.1169
3010.00,1.1169
3009.00,1.1168
3008.00,1.1168
3007.00,1.1167
3006.00,1.1166
3005.00,1.1164
3004.00,1.1163
3003.00,1.1161
3002.00,1.1159
3001.00,1.1158
3000.00,1.1156
2999.00,1.1154
2998.00,1.1153
2997.00,1.1151
2996.00,1.1150
2995.00,1.1148
2994.00,1.1147
2993.00,1.1147
2992.00,1.1147
2991.00,1.1147
2990.00,1.1147
2989.00,1.1147
2988.00,1.1147
2987.00,1.1147
2986.00,1.1147
2985.00,1.1148
2984.00,1.1148
2983.00,1.1147
2982.00,1.1147
2981.00,1.1148
2980.00,1.1148
2979.00,1.1150
2978.00,1.1151
2977.00,1.1152
2976.00,1.1152
2975.00,1.1152
2974.00,1.1153
2973.00,1.1152
2972.00,1.1152
2971.00,1.1152
2970.00,1.1152
2969.00,1.1152
2968.00,1.1151
2967.00,1.1151
2966.00,1.1151
2965.00,1.1151
2964.00,1.1152
2963.00,1.1151
2962.00,1.1151
2961.00,1.1150
2960.00,1.1149
2959.00,1.1148
2958.00,1.1147
2957.00,1.1146
2956.00,1.1145
2955.00,1.1143
2954.00,1.1142
2953.00,1.1140
2952.00,1.1138
2951.00,1.1137
2950.00,1.1135
2949.00,1.1133
2948.00,1.1131
2947.00,1.1128
2946.00,1.1126
2945.00,1.1125
2944.00,1.1125
2943.00,1.1125
2942.00,1.1125
2941.00,1.1125
2940.00,1.1125
2939.00,1.1125
2938.00,1.1126
2937.00,1.1127
2936.00,1.1128
2935.00,1.1129
2934.00,1.1130
2933.00,1.1130
2932.00,1.1131
2931.00,1.1131
2930.00,1.1132
2929.00,1.1132
2928.00,1.1133
2927.00,1.1135
2926.00,1.1136
2925.00,1.1138
2924.00,1.1141
2923.00,1.1144
2922.00,1.1146
2921.00,1.1148
2920.00,1.1148
2919.00,1.1147
2918.00,1.1146
2917.00,1.1145
2916.00,1.1143
2915.00,1.1141
2914.00,1.1138
2913.00,1.1135
2912.00,1.1133
2911.00,1.1131
2910.00,1.1130
2909.00,1.1128
2908.00,1.1126
2907.00,1.1124
2906.00,1.1122
2905.00,1.1121
2904.00,1.1120
2903.00,1.1119
2902.00,1.1119
2901.00,1.1118
2900.00,1.1117
2899.00,1.1115
2898.00,1.1114
2897.00,1.1113
2896.00,1.1112
2895.00,1.1112
2894.00,1.1112
2893.00,1.1112
2892.00,1.1113
2891.00,1.1114
2890.00,1.1115
2889.00,1.1116
2888.00,1.1116
2887.00,1.1116
2886.00,1.1116
2885.00,1.1115
2884.00,1.1115
2883.00,1.1114
2882.00,1.1113
2881.00,1.1113
2880.00,1.1113
2879.00,1.1113
2878.00,1.1112
2877.00,1.1111
2876.00,1.1110
2875.00,1.1108
2874.00,1.1107
2873.00,1.1105
2872.00,1.1103
2871.00,1.1101
2870.00,1.1099
2869.00,1.1097
2868.00,1.1095
2867.00,1.1093
2866.00,1.1090
2865.00,1.1088
2864.00,1.1086
2863.00,1.1086
2862.00,1.1086
2861.00,1.1086
2860.00,1.1087
2859.00,1.1087
2858.00,1.1088
2857.00,1.1088
2856.00,1.1088
2855.00,1.1087
2854.00,1.1087
2853.00,1.1088
2852.00,1.1088
2851.00,1.1089
2850.00,1.1090
2849.00,1.1091
2848.00,1.1092
2847.00,1.1093
2846.00,1.1094
2845.00,1.1094
2844.00,1.1094
2843.00,1.1093
2842.00,1.1093
2841.00,1.1093
2840.00,1.1093
2839.00,1.1092
2838.00,1.1091
2837.00,1.1091
2836.00,1.1091
2835.00,1.1091
2834.00,1.1090
2833.00,1.1090
2832.00,1.1089
2831.00,1.1089
2830.00,1.1088
2829.00,1.1087
2828.00,1.1085
2827.00,1.1084
2826.00,1.1083
2825.00,1.1082
2824.00,1.1080
2823.00,1.1078
2822.00,1.1077
2821.00,1.1075
2820.00,1.1074
2819.00,1.1073
2818.00,1.1071
2817.00,1.1070
2816.00,1.1068
2815.00,1.1067
2814.00,1.1066
2813.00,1.1066
2812.00,1.1065
2811.00,1.1064
2810.00,1.1064
2809.00,1.1063
2808.00,1.1063
2807.00,1.1063
2806.00,1.1063
2805.00,1.1063
2804.00,1.1063
2803.00,1.1063
2802.00,1.1064
2801.00,1.1064
2800.00,1.1065
2799.00,1.1065
2798.00,1.1066
2797.00,1.1066
2796.00,1.1067
2795.00,1.1067
2794.00,1.1068
2793.00,1.1069
2792.00,1.1069
2791.00,1.1070
2790.00,1.1069
2789.00,1.1069
2788.00,1.1069
2787.00,1.1069
2786.00,1.1069
2785.00,1.1069
2784.00,1.1069
2783.00,1.1068
2782.00,1.1067
2781.00,1.1065
2780.00,1.1064
2779.00,1.1062
2778.00,1.1061
2777.00,1.1059
2776.00,1.1058
2775.00,1.1056
2774.00,1.1055
2773.00,1.1054
2772.00,1.1053
2771.00,1.1052
2770.00,1.1051
2769.00,1.1050
2768.00,1.1048
2767.00,1.1047
2766.00,1.1047
2765.00,1.1047
2764.00,1.1047
2763.00,1.1047
2762.00,1.1047
2761.00,1.1048
2760.00,1.1048
2759.00,1.1049
2758.00,1.1050
2757.00,1.1051
2756.00,1.1052
2755.00,1.1053
2754.00,1.1054
2753.00,1.1055
2752.00,1.1056
2751.00,1.1057
2750.00,1.1058
2749.00,1.1058
2748.00,1.1059
2747.00,1.1059
2746.00,1.1059
2745.00,1.1059
2744.00,1.1059
2743.00,1.1060
2742.00,1.1060
2741.00,1.1060
2740.00,1.1059
2739.00,1.1059
2738.00,1.1058
2737.00,1.1058
2736.00,1.1056
2735.00,1.1055
2734.00,1.1053
2733.00,1.1052
2732.00,1.1051
2731.00,1.1049
2730.00,1.1048
2729.00,1.1048
2728.00,1.1047
2727.00,1.1045
2726.00,1.1044
2725.00,1.1043
2724.00,1.1042
2723.00,1.1041
2722.00,1.1040
2721.00,1.1040
2720.00,1.1040
2719.00,1.1040
2718.00,1.1041
2717.00,1.1041
2716.00,1.1042
2715.00,1.1042
2714.00,1.1043
2713.00,1.1043
2712.00,1.1044
2711.00,1.1045
2710.00,1.1047
2709.00,1.1048
2708.00,1.1050
2707.00,1.1051
2706.00,1.1052
2705.00,1.1053
2704.00,1.1054
2703.00,1.1055
2702.00,1.1056
2701.00,1.1057
2700.00,1.1057
2699.00,1.1058
2698.00,1.1058
2697.00,1.1058
2696.00,1.1059
2695.00,1.1058
2694.00,1.1058
2693.00,1.1057
2692.00,1.1056
2691.00,1.1055
2690.00,1.1054
2689.00,1.1053
2688.00,1.1053
2687.00,1.1052
2686.00,1.1051
2685.00,1.1050
2684.00,1.1049
2683.00,1.1047
2682.00,1.1046
2681.00,1.1045
2680.00,1.1044
2679.00,1.1042
2678.00,1.1041
2677.00,1.1041
2676.00,1.1041
2675.00,1.1042
2674.00,1.1043
2673.00,1.1043
2672.00,1.1043
2671.00,1.1044
2670.00,1.1045
2669.00,1.1046
2668.00,1.1047
2667.00,1.1047
2666.00,1.1048
2665.00,1.1049
2664.00,1.1051
2663.00,1.1052
2662.00,1.1054
2661.00,1.1056
2660.00,1.1058
2659.00,1.1059
2658.00,1.1060
2657.00,1.1062
2656.00,1.1063
2655.00,1.1065
2654.00,1.1066
2653.00,1.1067
2652.00,1.1067
2651.00,1.1066
2650.00,1.1066
2649.00,1.1066
2648.00,1.1065
2647.00,1.1065
2646.00,1.1065
2645.00,1.1064
2644.00,1.1064
2643.00,1.1063
2642.00,1.1062
2641.00,1.1061
2640.00,1.1060
2639.00,1.1059
2638.00,1.1058
2637.00,1.1057
2636.00,1.1055
2635.00,1.1054
2634.00,1.1052
2633.00,1.1052
2632.00,1.1051
2631.00,1.1051
2630.00,1.1051
2629.00,1.1051
2628.00,1.1051
2627.00,1.1052
2626.00,1.1053
2625.00,1.1053
2624.00,1.1054
2623.00,1.1055
2622.00,1.1057
2621.00,1.1058
2620.00,1.1060
2619.00,1.1062
2618.00,1.1063
2617.00,1.1065
2616.00,1.1067
2615.00,1.1069
2614.00,1.1070
2613.00,1.1071
2612.00,1.1073
2611.00,1.1074
2610.00,1.1075
2609.00,1.1076
2608.00,1.1077
2607.00,1.1077
2606.00,1.1077
2605.00,1.1078
2604.00,1.1078
2603.00,1.1077
2602.00,1.1077
2601.00,1.1076
2600.00,1.1076
2599.00,1.1075
2598.00,1.1074
2597.00,1.1073
2596.00,1.1072
2595.00,1.1071
2594.00,1.1070
2593.00,1.1069
2592.00,1.1068
2591.00,1.1067
2590.00,1.1066
2589.00,1.1066
2588.00,1.1065
2587.00,1.1064
2586.00,1.1064
2585.00,1.1064
2584.00,1.1064
2583.00,1.1064
2582.00,1.1064
2581.00,1.1064
2580.00,1.1065
2579.00,1.1067
2578.00,1.1068
2577.00,1.1069
2576.00,1.1070
2575.00,1.1070
2574.00,1.1072
2573.00,1.1073
2572.00,1.1075
2571.00,1.1077
2570.00,1.1079
2569.00,1.1080
2568.00,1.1082
2567.00,1.1084
2566.00,1.1085
2565.00,1.1087
2564.00,1.1088
2563.00,1.1089
2562.00,1.1089
2561.00,1.1090
2560.00,1.1090
2559.00,1.1091
2558.00,1.1091
2557.00,1.1091
2556.00,1.1090
2555.00,1.1089
2554.00,1.1088
2553.00,1.1087
2552.00,1.1087
2551.00,1.1086
2550.00,1.1085
2549.00,1.1084
2548.00,1.1083
2547.00,1.1081
2546.00,1.1080
2545.00,1.1079
2544.00,1.1078
2543.00,1.1077
2542.00,1.1076
2541.00,1.1075
2540.00,1.1075
2539.00,1.1075
2538.00,1.1075
2537.00,1.1076
2536.00,1.1078
2535.00,1.1078
2534.00,1.1079
2533.00,1.1080
2532.00,1.1080
2531.00,1.1082
2530.00,1.1083
2529.00,1.1085
2528.00,1.1087
2527.00,1.1089
2526.00,1.1090
2525.00,1.1092
2524.00,1.1094
2523.00,1.1096
2522.00,1.1097
2521.00,1.1098
2520.00,1.1099
2519.00,1.1100
2518.00,1.1101
2517.00,1.1102
2516.00,1.1103
2515.00,1.1103
2514.00,1.1103
2513.00,1.1103
2512.00,1.1103
2511.00,1.1102
2510.00,1.1101
2509.00,1.1101
2508.00,1.1100
2507.00,1.1099
2506.00,1.1098
2505.00,1.1097
2504.00,1.1096
2503.00,1.1096
2502.00,1.1095
2501.00,1.1094
2500.00,1.1093
2499.00,1.1092
2498.00,1.1091
2497.00,1.1090
2496.00,1.1090
2495.00,1.1090
2494.00,1.1090
2493.00,1.1090
2492.00,1.1090
2491.00,1.1091
2490.00,1.1092
2489.00,1.1093
2488.00,1.1094
2487.00,1.1095
2486.00,1.1096
2485.00,1.1097
2484.00,1.1099
2483.00,1.1101
2482.00,1.1103
2481.00,1.1105
2480.00,1.1106
2479.00,1.1108
2478.00,1.1109
2477.00,1.1111
2476.00,1.1112
2475.00,1.1114
2474.00,1.1115
2473.00,1.1116
2472.00,1.1116
2471.00,1.1117
2470.00,1.1118
2469.00,1.1119
2468.00,1.1119
2467.00,1.1119
2466.00,1.1119
2465.00,1.1118
2464.00,1.1118
2463.00,1.1118
2462.00,1.1117
2461.00,1.1117
2460.00,1.1116
2459.00,1.1115
2458.00,1.1114
2457.00,1.1112
2456.00,1.1111
2455.00,1.1110
2454.00,1.1110
2453.00,1.1110
2452.00,1.1109
2451.00,1.1108
2450.00,1.1107
2449.00,1.1107
2448.00,1.1107
2447.00,1.1107
2446.00,1.1108
2445.00,1.1108
2444.00,1.1109
2443.00,1.1110
2442.00,1.1111
2441.00,1.1113
2440.00,1.1115
2439.00,1.1116
2438.00,1.1118
2437.00,1.1119
2436.00,1.1121
2435.00,1.1122
2434.00,1.1124
2433.00,1.1126
2432.00,1.1127
2431.00,1.1128
2430.00,1.1130
2429.00,1.1131
2428.00,1.1132
2427.00,1.1133
2426.00,1.1134
2425.00,1.1134
2424.00,1.1134
2423.00,1.1133
2422.00,1.1132
2421.00,1.1132
2420.00,1.1131
2419.00,1.1130
2418.00,1.1129
2417.00,1.1127
2416.00,1.1125
2415.00,1.1122
2414.00,1.1120
2413.00,1.1119
2412.00,1.1117
2411.00,1.1115
2410.00,1.1113
2409.00,1.1112
2408.00,1.1111
2407.00,1.1109
2406.00,1.1108
2405.00,1.1107
2404.00,1.1106
2403.00,1.1105
2402.00,1.1104
2401.00,1.1104
2400.00,1.1105
2399.00,1.1106
2398.00,1.1107
2397.00,1.1108
2396.00,1.1108
2395.00,1.1108
2394.00,1.1109
2393.00,1.1110
2392.00,1.1111
2391.00,1.1112
2390.00,1.1114
2389.00,1.1116
2388.00,1.1118
2387.00,1.1120
2386.00,1.1123
2385.00,1.1127
2384.00,1.1131
2383.00,1.1135
2382.00,1.1139
2381.00,1.1144
2380.00,1.1148
2379.00,1.1153
2378.00,1.1157
2377.00,1.1159
2376.00,1.1161
2375.00,1.1161
2374.00,1.1160
2373.00,1.1159
2372.00,1.1158
2371.00,1.1157
2370.00,1.1156
2369.00,1.1156
2368.00,1.1157
2367.00,1.1158
2366.00,1.1159
2365.00,1.1161
2364.00,1.1163
2363.00,1.1165
2362.00,1.1166
2361.00,1.1167
2360.00,1.1167
2359.00,1.1167
2358.00,1.1167
2357.00,1.1168
2356.00,1.1169
2355.00,1.1170
2354.00,1.1171
2353.00,1.1172
2352.00,1.1174
2351.00,1.1174
2350.00,1.1172
2349.00,1.1170
2348.00,1.1167
2347.00,1.1166
2346.00,1.1168
2345.00,1.1171
2344.00,1.1172
2343.00,1.1171
2342.00,1.1170
2341.00,1.1170
2340.00,1.1170
2339.00,1.1170
2338.00,1.1169
2337.00,1.1169
2336.00,1.1168
2335.00,1.1167
2334.00,1.1167
2333.00,1.1168
2332.00,1.1169
2331.00,1.1169
2330.00,1.1168
2329.00,1.1167
2328.00,1.1165
2327.00,1.1162
2326.00,1.1161
2325.00,1.1160
2324.00,1.1160
2323.00,1.1160
2322.00,1.1160
2321.00,1.1158
2320.00,1.1156
2319.00,1.1152
2318.00,1.1149
2317.00,1.1147
2316.00,1.1146
2315.00,1.1146
2314.00,1.1147
2313.00,1.1147
2312.00,1.1147
2311.00,1.1147
2310.00,1.1146
2309.00,1.1145
2308.00,1.1145
2307.00,1.1143
2306.00,1.1142
2305.00,1.1141
2304.00,1.1141
2303.00,1.1141
2302.00,1.1142
2301.00,1.1142
2300.00,1.1143
2299.00,1.1143
2298.00,1.1144
2297.00,1.1144
2296.00,1.1145
2295.00,1.1145
2294.00,1.1144
2293.00,1.1144
2292.00,1.1144
2291.00,1.1144
2290.00,1.1144
2289.00,1.1143
2288.00,1.1143
2287.00,1.1143
2286.00,1.1142
2285.00,1.1141
2284.00,1.1139
2283.00,1.1138
2282.00,1.1137
2281.00,1.1137
2280.00,1.1136
2279.00,1.1135
2278.00,1.1133
2277.00,1.1133
2276.00,1.1132
2275.00,1.1131
2274.00,1.1130
2273.00,1.1129
2272.00,1.1128
2271.00,1.1127
2270.00,1.1127
2269.00,1.1126
2268.00,1.1127
2267.00,1.1127
2266.00,1.1127
2265.00,1.1128
2264.00,1.1128
2263.00,1.1128
2262.00,1.1129
2261.00,1.1130
2260.00,1.1132
2259.00,1.1133
2258.00,1.1135
2257.00,1.1136
2256.00,1.1138
2255.00,1.1140
2254.00,1.1141
2253.00,1.1143
2252.00,1.1144
2251.00,1.1145
2250.00,1.1146
2249.00,1.1148
2248.00,1.1149
2247.00,1.1150
2246.00,1.1150
2245.00,1.1151
2244.00,1.1150
2243.00,1.1150
2242.00,1.1149
2241.00,1.1149
2240.00,1.1148
2239.00,1.1147
2238.00,1.1146
2237.00,1.1145
2236.00,1.1144
2235.00,1.1142
2234.00,1.1141
2233.00,1.1140
2232.00,1.1138
2231.00,1.1136
2230.00,1.1134
2229.00,1.1133
2228.00,1.1132
2227.00,1.1131
2226.00,1.1130
2225.00,1.1130
2224.00,1.1130
2223.00,1.1129
2222.00,1.1129
2221.00,1.1129
2220.00,1.1129
2219.00,1.1129
2218.00,1.1129
2217.00,1.1130
2216.00,1.1131
2215.00,1.1132
2214.00,1.1133
2213.00,1.1135
2212.00,1.1137
2211.00,1.1139
2210.00,1.1140
2209.00,1.1141
2208.00,1.1143
2207.00,1.1144
2206.00,1.1146
2205.00,1.1147
2204.00,1.1149
2203.00,1.1150
2202.00,1.1150
2201.00,1.1151
2200.00,1.1151
2199.00,1.1151
2198.00,1.1151
2197.00,1.1150
2196.00,1.1150
2195.00,1.1149
2194.00,1.1148
2193.00,1.1147
2192.00,1.1146
2191.00,1.1145
2190.00,1.1144
2189.00,1.1142
2188.00,1.1140
2187.00,1.1138
2186.00,1.1136
2185.00,1.1134
2184.00,1.1132
2183.00,1.1131
2182.00,1.1129
2181.00,1.1128
2180.00,1.1127
2179.00,1.1126
2178.00,1.1126
2177.00,1.1125
2176.00,1.1125
2175.00,1.1124
2174.00,1.1124
2173.00,1.1124
2172.00,1.1124
2171.00,1.1125
2170.00,1.1126
2169.00,1.1128
2168.00,1.1129
2167.00,1.1130
2166.00,1.1131
2165.00,1.1132
2164.00,1.1133
2163.00,1.1135
2162.00,1.1136
2161.00,1.1137
2160.00,1.1138
2159.00,1.1139
2158.00,1.1140
2157.00,1.1141
2156.00,1.1142
2155.00,1.1142
2154.00,1.1141
2153.00,1.1142
2152.00,1.1142
2151.00,1.1142
2150.00,1.1141
2149.00,1.1140
2148.00,1.1139
2147.00,1.1137
2146.00,1.1135
2145.00,1.1133
2144.00,1.1131
2143.00,1.1129
2142.00,1.1126
2141.00,1.1124
2140.00,1.1122
2139.00,1.1119
2138.00,1.1118
2137.00,1.1116
2136.00,1.1115
2135.00,1.1114
2134.00,1.1112
2133.00,1.1110
2132.00,1.1109
2131.00,1.1108
2130.00,1.1107
2129.00,1.1107
2128.00,1.1107
2127.00,1.1107
2126.00,1.1108
2125.00,1.1108
2124.00,1.1110
2123.00,1.1111
2122.00,1.1113
2121.00,1.1114
2120.00,1.1116
2119.00,1.1117
2118.00,1.1118
2117.00,1.1119
2116.00,1.1121
2115.00,1.1122
2114.00,1.1123
2113.00,1.1123
2112.00,1.1124
2111.00,1.1124
2110.00,1.1125
2109.00,1.1126
2108.00,1.1126
2107.00,1.1126
2106.00,1.1125
2105.00,1.1124
2104.00,1.1123
2103.00,1.1122
2102.00,1.1120
2101.00,1.1118
2100.00,1.1116
2099.00,1.1114
2098.00,1.1112
2097.00,1.1110
2096.00,1.1108
2095.00,1.1105
2094.00,1.1103
2093.00,1.1101
2092.00,1.1099
2091.00,1.1096
2090.00,1.1094
2089.00,1.1093
2088.00,1.1091
2087.00,1.1090
2086.00,1.1088
2085.00,1.1087
2084.00,1.1087
2083.00,1.1086
2082.00,1.1086
2081.00,1.1087
2080.00,1.1087
2079.00,1.1088
2078.00,1.1088
2077.00,1.1089
2076.00,1.1091
2075.00,1.1092
2074.00,1.1094
2073.00,1.1096
2072.00,1.1098
2071.00,1.1098
2070.00,1.1099
2069.00,1.1100
2068.00,1.1102
2067.00,1.1103
2066.00,1.1104
2065.00,1.1104
2064.00,1.1105
2063.00,1.1105
2062.00,1.1105
2061.00,1.1105
2060.00,1.1105
2059.00,1.1104
2058.00,1.1102
2057.00,1.1100
2056.00,1.1098
2055.00,1.1096
2054.00,1.1095
2053.00,1.1093
2052.00,1.1091
2051.00,1.1088
2050.00,1.1085
2049.00,1.1083
2048.00,1.1081
2047.00,1.1078
2046.00,1.1076
2045.00,1.1074
2044.00,1.1072
2043.00,1.1070
2042.00,1.1069
2041.00,1.1068
2040.00,1.1067
2039.00,1.1066
2038.00,1.1065
2037.00,1.1064
2036.00,1.1063
2035.00,1.1064
2034.00,1.1064
2033.00,1.1065
2032.00,1.1066
2031.00,1.1067
2030.00,1.1069
2029.00,1.1071
2028.00,1.1073
2027.00,1.1074
2026.00,1.1075
2025.00,1.1077
2024.00,1.1078
2023.00,1.1080
2022.00,1.1080
2021.00,1.1082
2020.00,1.1083
2019.00,1.1085
2018.00,1.1085
2017.00,1.1085
2016.00,1.1085
2015.00,1.1083
2014.00,1.1083
2013.00,1.1082
2012.00,1.1082
2011.00,1.1081
2010.00,1.1079
2009.00,1.1077
2008.00,1.1075
2007.00,1.1073
2006.00,1.1070
2005.00,1.1068
2004.00,1.1065
2003.00,1.1062
2002.00,1.1059
2001.00,1.1057
2000.00,1.1055
1999.00,1.1053
1998.00,1.1052
1997.00,1.1051
1996.00,1.1050
1995.00,1.1048
1994.00,1.1047
1993.00,1.1047
1992.00,1.1047
1991.00,1.1046
1990.00,1.1046
1989.00,1.1046
1988.00,1.1047
1987.00,1.1048
1986.00,1.1050
1985.00,1.1052
1984.00,1.1053
1983.00,1.1055
1982.00,1.1056
1981.00,1.1058
1980.00,1.1060
1979.00,1.1062
1978.00,1.1064
1977.00,1.1066
1976.00,1.1067
1975.00,1.1068
1974.00,1.1069
1973.00,1.1069
1972.00,1.1070
1971.00,1.1071
1970.00,1.1071
1969.00,1.1071
1968.00,1.1071
1967.00,1.1070
1966.00,1.1069
1965.00,1.1068
1964.00,1.1066
1963.00,1.1064
1962.00,1.1062
1961.00,1.1060
1960.00,1.1058
1959.00,1.1056
1958.00,1.1054
1957.00,1.1053
1956.00,1.1051
1955.00,1.1048
1954.00,1.1046
1953.00,1.1044
1952.00,1.1043
1951.00,1.1041
1950.00,1.1041
1949.00,1.1040
1948.00,1.1040
1947.00,1.1039
1946.00,1.1038
1945.00,1.1039
1944.00,1.1041
1943.00,1.1042
1942.00,1.1043
1941.00,1.1043
1940.00,1.1043
1939.00,1.1044
1938.00,1.1046
1937.00,1.1048
1936.00,1.1051
1935.00,1.1053
1934.00,1.1055
1933.00,1.1057
1932.00,1.1059
1931.00,1.1061
1930.00,1.1063
1929.00,1.1065
1928.00,1.1066
1927.00,1.1067
1926.00,1.1068
1925.00,1.1069
1924.00,1.1071
1923.00,1.1071
1922.00,1.1070
1921.00,1.1069
1920.00,1.1069
1919.00,1.1069
1918.00,1.1067
1917.00,1.1065
1916.00,1.1063
1915.00,1.1060
1914.00,1.1058
1913.00,1.1057
1912.00,1.1056
1911.00,1.1054
1910.00,1.1052
1909.00,1.1050
1908.00,1.1049
1907.00,1.1046
1906.00,1.1044
1905.00,1.1043
1904.00,1.1043
1903.00,1.1042
1902.00,1.1041
1901.00,1.1042
1900.00,1.1043
1899.00,1.1043
1898.00,1.1043
1897.00,1.1044
1896.00,1.1046
1895.00,1.1048
1894.00,1.1049
1893.00,1.1051
1892.00,1.1055
1891.00,1.1058
1890.00,1.1061
1889.00,1.1063
1888.00,1.1064
1887.00,1.1065
1886.00,1.1065
1885.00,1.1067
1884.00,1.1070
1883.00,1.1071
1882.00,1.1071
1881.00,1.1073
1880.00,1.1076
1879.00,1.1077
1878.00,1.1076
1877.00,1.1076
1876.00,1.1076
1875.00,1.1075
1874.00,1.1073
1873.00,1.1072
1872.00,1.1072
1871.00,1.1072
1870.00,1.1071
1869.00,1.1071
1868.00,1.1069
1867.00,1.1065
1866.00,1.1060
1865.00,1.1057
1864.00,1.1056
1863.00,1.1054
1862.00,1.1052
1861.00,1.1051
1860.00,1.1052
1859.00,1.1051
1858.00,1.1050
1857.00,1.1049
1856.00,1.1049
1855.00,1.1049
1854.00,1.1048
1853.00,1.1049
1852.00,1.1050
1851.00,1.1050
1850.00,1.1051
1849.00,1.1053
1848.00,1.1055
1847.00,1.1058
1846.00,1.1062
1845.00,1.1067
1844.00,1.1069
1843.00,1.1067
1842.00,1.1066
1841.00,1.1068
1840.00,1.1071
1839.00,1.1074
1838.00,1.1076
1837.00,1.1078
1836.00,1.1080
1835.00,1.1081
1834.00,1.1082
1833.00,1.1083
1832.00,1.1085
1831.00,1.1087
1830.00,1.1087
1829.00,1.1085
1828.00,1.1083
1827.00,1.1081
1826.00,1.1080
1825.00,1.1079
1824.00,1.1077
1823.00,1.1075
1822.00,1.1073
1821.00,1.1072
1820.00,1.1071
1819.00,1.1070
1818.00,1.1068
1817.00,1.1066
1816.00,1.1065
1815.00,1.1065
1814.00,1.1063
1813.00,1.1062
1812.00,1.1063
1811.00,1.1063
1810.00,1.1061
1809.00,1.1060
1808.00,1.1061
1807.00,1.1062
1806.00,1.1063
1805.00,1.1064
1804.00,1.1066
1803.00,1.1067
1802.00,1.1068
1801.00,1.1069
1800.00,1.1072
1799.00,1.1075
1798.00,1.1077
1797.00,1.1079
1796.00,1.1082
1795.00,1.1083
1794.00,1.1085
1793.00,1.1087
1792.00,1.1091
1791.00,1.1093
1790.00,1.1093
1789.00,1.1093
1788.00,1.1095
1787.00,1.1096
1786.00,1.1096
1785.00,1.1096
1784.00,1.1097
1783.00,1.1098
1782.00,1.1097
1781.00,1.1097
1780.00,1.1096
1779.00,1.1094
1778.00,1.1093
1777.00,1.1091
1776.00,1.1090
1775.00,1.1088
1774.00,1.1087
1773.00,1.1086
1772.00,1.1084
1771.00,1.1082
1770.00,1.1079
1769.00,1.1078
1768.00,1.1077
1767.00,1.1078
1766.00,1.1078
1765.00,1.1078
1764.00,1.1079
1763.00,1.1081
1762.00,1.1083
1761.00,1.1083
1760.00,1.1083
1759.00,1.1085
1758.00,1.1088
1757.00,1.1089
1756.00,1.1090
1755.00,1.1090
1754.00,1.1091
1753.00,1.1091
1752.00,1.1092
1751.00,1.1095
1750.00,1.1100
1749.00,1.1105
1748.00,1.1108
1747.00,1.1110
1746.00,1.1113
1745.00,1.1116
1744.00,1.1117
1743.00,1.1118
1742.00,1.1119
1741.00,1.1119
1740.00,1.1119
1739.00,1.1119
1738.00,1.1117
1737.00,1.1114
1736.00,1.1112
1735.00,1.1110
1734.00,1.1109
1733.00,1.1109
1732.00,1.1111
1731.00,1.1112
1730.00,1.1112
1729.00,1.1113
1728.00,1.1112
1727.00,1.1111
1726.00,1.1109
1725.00,1.1108
1724.00,1.1108
1723.00,1.1107
1722.00,1.1103
1721.00,1.1101
1720.00,1.1101
1719.00,1.1101
1718.00,1.1100
1717.00,1.1101
1716.00,1.1105
1715.00,1.1106
1714.00,1.1104
1713.00,1.1105
1712.00,1.1110
1711.00,1.1113
1710.00,1.1113
1709.00,1.1115
1708.00,1.1119
1707.00,1.1123
1706.00,1.1123
1705.00,1.1124
1704.00,1.1126
1703.00,1.1126
1702.00,1.1124
1701.00,1.1125
1700.00,1.1128
1699.00,1.1129
1698.00,1.1130
1697.00,1.1135
1696.00,1.1142
1695.00,1.1145
1694.00,1.1144
1693.00,1.1142
1692.00,1.1142
1691.00,1.1143
1690.00,1.1143
1689.00,1.1141
1688.00,1.1137
1687.00,1.1135
1686.00,1.1136
1685.00,1.1138
1684.00,1.1136
1683.00,1.1130
1682.00,1.1128
1681.00,1.1127
1680.00,1.1124
1679.00,1.1121
1678.00,1.1118
1677.00,1.1116
1676.00,1.1114
1675.00,1.1114
1674.00,1.1117
1673.00,1.1119
1672.00,1.1118
1671.00,1.1117
1670.00,1.1120
1669.00,1.1123
1668.00,1.1124
1667.00,1.1124
1666.00,1.1126
1665.00,1.1129
1664.00,1.1131
1663.00,1.1133
1662.00,1.1136
1661.00,1.1140
1660.00,1.1142
1659.00,1.1144
1658.00,1.1146
1657.00,1.1146
1656.00,1.1144
1655.00,1.1145
1654.00,1.1150
1653.00,1.1153
1652.00,1.1154
1651.00,1.1155
1650.00,1.1155
1649.00,1.1154
1648.00,1.1155
1647.00,1.1156
1646.00,1.1155
1645.00,1.1154
1644.00,1.1153
1643.00,1.1152
1642.00,1.1151
1641.00,1.1149
1640.00,1.1146
1639.00,1.1144
1638.00,1.1142
1637.00,1.1140
1636.00,1.1137
1635.00,1.1135
1634.00,1.1134
1633.00,1.1134
1632.00,1.1134
1631.00,1.1133
1630.00,1.1131
1629.00,1.1130
1628.00,1.1129
1627.00,1.1129
1626.00,1.1130
1625.00,1.1130
1624.00,1.1130
1623.00,1.1130
1622.00,1.1131
1621.00,1.1133
1620.00,1.1134
1619.00,1.1135
1618.00,1.1139
1617.00,1.1144
1616.00,1.1146
1615.00,1.1147
1614.00,1.1150
1613.00,1.1153
1612.00,1.1155
1611.00,1.1157
1610.00,1.1161
1609.00,1.1165
1608.00,1.1167
1607.00,1.1168
1606.00,1.1171
1605.00,1.1173
1604.00,1.1173
1603.00,1.1172
1602.00,1.1173
1601.00,1.1173
1600.00,1.1172
1599.00,1.1170
1598.00,1.1170
1597.00,1.1168
1596.00,1.1166
1595.00,1.1163
1594.00,1.1162
1593.00,1.1160
1592.00,1.1157
1591.00,1.1155
1590.00,1.1154
1589.00,1.1153
1588.00,1.1150
1587.00,1.1147
1586.00,1.1146
1585.00,1.1146
1584.00,1.1144
1583.00,1.1143
1582.00,1.1144
1581.00,1.1146
1580.00,1.1145
1579.00,1.1145
1578.00,1.1149
1577.00,1.1153
1576.00,1.1152
1575.00,1.1151
1574.00,1.1152
1573.00,1.1154
1572.00,1.1155
1571.00,1.1157
1570.00,1.1161
1569.00,1.1163
1568.00,1.1162
1567.00,1.1163
1566.00,1.1168
1565.00,1.1171
1564.00,1.1171
1563.00,1.1171
1562.00,1.1174
1561.00,1.1176
1560.00,1.1176
1559.00,1.1176
1558.00,1.1177
1557.00,1.1179
1556.00,1.1179
1555.00,1.1178
1554.00,1.1177
1553.00,1.1175
1552.00,1.1172
1551.00,1.1171
1550.00,1.1171
1549.00,1.1169
1548.00,1.1165
1547.00,1.1161
1546.00,1.1160
1545.00,1.1160
1544.00,1.1158
1543.00,1.1155
1542.00,1.1153
1541.00,1.1153
1540.00,1.1151
1539.00,1.1147
1538.00,1.1147
1537.00,1.1149
1536.00,1.1150
1535.00,1.1150
1534.00,1.1151
1533.00,1.1151
1532.00,1.1152
1531.00,1.1153
1530.00,1.1154
1529.00,1.1157
1528.00,1.1159
1527.00,1.1160
1526.00,1.1161
1525.00,1.1162
1524.00,1.1163
1523.00,1.1166
1522.00,1.1168
1521.00,1.1171
1520.00,1.1173
1519.00,1.1174
1518.00,1.1176
1517.00,1.1176
1516.00,1.1177
1515.00,1.1177
1514.00,1.1177
1513.00,1.1178
1512.00,1.1179
1511.00,1.1179
1510.00,1.1176
1509.00,1.1172
1508.00,1.1170
1507.00,1.1169
1506.00,1.1164
1505.00,1.1161
1504.00,1.1162
1503.00,1.1162
1502.00,1.1159
1501.00,1.1155
1500.00,1.1150
1499.00,1.1146
1498.00,1.1141
1497.00,1.1138
1496.00,1.1139
1495.00,1.1144
1494.00,1.1148
1493.00,1.1152
1492.00,1.1154
1491.00,1.1156
1490.00,1.1156
1489.00,1.1156
1488.00,1.1159
1487.00,1.1159
1486.00,1.1158
1485.00,1.1158
1484.00,1.1160
1483.00,1.1160
1482.00,1.1161
1481.00,1.1162
1480.00,1.1164
1479.00,1.1164
1478.00,1.1163
1477.00,1.1164
1476.00,1.1167
1475.00,1.1167
1474.00,1.1167
1473.00,1.1168
1472.00,1.1171
1471.00,1.1174
1470.00,1.1176
1469.00,1.1179
1468.00,1.1181
1467.00,1.1182
1466.00,1.1181
1465.00,1.1178
1464.00,1.1176
1463.00,1.1175
1462.00,1.1172
1461.00,1.1169
1460.00,1.1165
1459.00,1.1163
1458.00,1.1159
1457.00,1.1153
1456.00,1.1148
1455.00,1.1147
1454.00,1.1148
1453.00,1.1149
1452.00,1.1149
1451.00,1.1151
1450.00,1.1151
1449.00,1.1149
1448.00,1.1147
1447.00,1.1146
1446.00,1.1146
1445.00,1.1144
1444.00,1.1143
1443.00,1.1145
1442.00,1.1146
1441.00,1.1144
1440.00,1.1142
1439.00,1.1143
1438.00,1.1144
1437.00,1.1142
1436.00,1.1142
1435.00,1.1146
1434.00,1.1152
1433.00,1.1155
1432.00,1.1157
1431.00,1.1162
1430.00,1.1167
1429.00,1.1168
1428.00,1.1169
1427.00,1.1171
1426.00,1.1174
1425.00,1.1173
1424.00,1.1171
1423.00,1.1173
1422.00,1.1176
1421.00,1.1176
1420.00,1.1175
1419.00,1.1175
1418.00,1.1174
1417.00,1.1169
1416.00,1.1165
1415.00,1.1165
1414.00,1.1165
1413.00,1.1163
1412.00,1.1159
1411.00,1.1158
1410.00,1.1156
1409.00,1.1152
1408.00,1.1147
1407.00,1.1145
1406.00,1.1144
1405.00,1.1141
1404.00,1.1138
1403.00,1.1136
1402.00,1.1136
1401.00,1.1134
1400.00,1.1132
1399.00,1.1132
1398.00,1.1134
1397.00,1.1134
1396.00,1.1135
1395.00,1.1136
1394.00,1.1138
1393.00,1.1137
1392.00,1.1137
1391.00,1.1138
1390.00,1.1141
1389.00,1.1144
1388.00,1.1145
1387.00,1.1147
1386.00,1.1150
1385.00,1.1154
1384.00,1.1157
1383.00,1.1160
1382.00,1.1162
1381.00,1.1163
1380.00,1.1163
1379.00,1.1163
1378.00,1.1164
1377.00,1.1165
1376.00,1.1165
1375.00,1.1165
1374.00,1.1165
1373.00,1.1164
1372.00,1.1162
1371.00,1.1159
1370.00,1.1158
1369.00,1.1155
1368.00,1.1152
1367.00,1.1148
1366.00,1.1146
1365.00,1.1145
1364.00,1.1144
1363.00,1.1142
1362.00,1.1140
1361.00,1.1136
1360.00,1.1132
1359.00,1.1129
1358.00,1.1127
1357.00,1.1125
1356.00,1.1123
1355.00,1.1122
1354.00,1.1121
1353.00,1.1121
1352.00,1.1121
1351.00,1.1122
1350.00,1.1123
1349.00,1.1124
1348.00,1.1124
1347.00,1.1125
1346.00,1.1126
1345.00,1.1128
1344.00,1.1130
1343.00,1.1133
1342.00,1.1136
1341.00,1.1139
1340.00,1.1141
1339.00,1.1143
1338.00,1.1147
1337.00,1.1150
1336.00,1.1152
1335.00,1.1154
1334.00,1.1155
1333.00,1.1156
1332.00,1.1158
1331.00,1.1159
1330.00,1.1160
1329.00,1.1160
1328.00,1.1158
1327.00,1.1156
1326.00,1.1155
1325.00,1.1153
1324.00,1.1150
1323.00,1.1148
1322.00,1.1146
1321.00,1.1145
1320.00,1.1142
1319.00,1.1138
1318.00,1.1135
1317.00,1.1132
1316.00,1.1129
1315.00,1.1126
1314.00,1.1123
1313.00,1.1120
1312.00,1.1116
1311.00,1.1115
1310.00,1.1115
1309.00,1.1115
1308.00,1.1115
1307.00,1.1114
1306.00,1.1114
1305.00,1.1115
1304.00,1.1115
1303.00,1.1117
1302.00,1.1119
1301.00,1.1122
1300.00,1.1123
1299.00,1.1125
1298.00,1.1128
1297.00,1.1131
1296.00,1.1134
1295.00,1.1138
1294.00,1.1141
1293.00,1.1143
1292.00,1.1144
1291.00,1.1145
1290.00,1.1147
1289.00,1.1150
1288.00,1.1152
1287.00,1.1154
1286.00,1.1154
1285.00,1.1154
1284.00,1.1153
1283.00,1.1153
1282.00,1.1152
1281.00,1.1151
1280.00,1.1148
1279.00,1.1145
1278.00,1.1142
1277.00,1.1140
1276.00,1.1137
1275.00,1.1135
1274.00,1.1134
1273.00,1.1132
1272.00,1.1128
1271.00,1.1124
1270.00,1.1120
1269.00,1.1116
1268.00,1.1112
1267.00,1.1110
1266.00,1.1108
1265.00,1.1106
1264.00,1.1104
1263.00,1.1105
1262.00,1.1107
1261.00,1.1110
1260.00,1.1111
1259.00,1.1112
1258.00,1.1113
1257.00,1.1115
1256.00,1.1116
1255.00,1.1119
1254.00,1.1121
1253.00,1.1123
1252.00,1.1125
1251.00,1.1127
1250.00,1.1129
1249.00,1.1132
1248.00,1.1135
1247.00,1.1138
1246.00,1.1143
1245.00,1.1146
1244.00,1.1147
1243.00,1.1149
1242.00,1.1152
1241.00,1.1155
1240.00,1.1158
1239.00,1.1161
1238.00,1.1162
1237.00,1.1160
1236.00,1.1157
1235.00,1.1156
1234.00,1.1154
1233.00,1.1151
1232.00,1.1146
1231.00,1.1139
1230.00,1.1134
1229.00,1.1129
1228.00,1.1126
1227.00,1.1124
1226.00,1.1124
1225.00,1.1121
1224.00,1.1117
1223.00,1.1112
1222.00,1.1108
1221.00,1.1104
1220.00,1.1101
1219.00,1.1098
1218.00,1.1094
1217.00,1.1090
1216.00,1.1087
1215.00,1.1087
1214.00,1.1090
1213.00,1.1094
1212.00,1.1095
1211.00,1.1097
1210.00,1.1099
1209.00,1.1101
1208.00,1.1104
1207.00,1.1109
1206.00,1.1115
1205.00,1.1121
1204.00,1.1125
1203.00,1.1128
1202.00,1.1131
1201.00,1.1132
1200.00,1.1134
1199.00,1.1137
1198.00,1.1141
1197.00,1.1145
1196.00,1.1146
1195.00,1.1147
1194.00,1.1148
1193.00,1.1150
1192.00,1.1152
1191.00,1.1152
1190.00,1.1150
1189.00,1.1146
1188.00,1.1140
1187.00,1.1135
1186.00,1.1132
1185.00,1.1129
1184.00,1.1125
1183.00,1.1121
1182.00,1.1117
1181.00,1.1113
1180.00,1.1109
1179.00,1.1105
1178.00,1.1102
1177.00,1.1098
1176.00,1.1093
1175.00,1.1088
1174.00,1.1084
1173.00,1.1081
1172.00,1.1081
1171.00,1.1083
1170.00,1.1085
1169.00,1.1086
1168.00,1.1084
1167.00,1.1083
1166.00,1.1085
1165.00,1.1089
1164.00,1.1093
1163.00,1.1097
1162.00,1.1103
1161.00,1.1108
1160.00,1.1114
1159.00,1.1120
1158.00,1.1127
1157.00,1.1133
1156.00,1.1138
1155.00,1.1142
1154.00,1.1144
1153.00,1.1146
1152.00,1.1147
1151.00,1.1151
1150.00,1.1157
1149.00,1.1162
1148.00,1.1163
1147.00,1.1162
1146.00,1.1158
1145.00,1.1154
1144.00,1.1151
1143.00,1.1148
1142.00,1.1145
1141.00,1.1139
1140.00,1.1131
1139.00,1.1125
1138.00,1.1121
1137.00,1.1117
1136.00,1.1111
1135.00,1.1104
1134.00,1.1096
1133.00,1.1086
1132.00,1.1076
1131.00,1.1067
1130.00,1.1063
1129.00,1.1062
1128.00,1.1060
1127.00,1.1058
1126.00,1.1055
1125.00,1.1052
1124.00,1.1049
1123.00,1.1048
1122.00,1.1049
1121.00,1.1049
1120.00,1.1048
1119.00,1.1050
1118.00,1.1055
1117.00,1.1063
1116.00,1.1073
1115.00,1.1081
1114.00,1.1087
1113.00,1.1091
1112.00,1.1092
1111.00,1.1095
1110.00,1.1100
1109.00,1.1108
1108.00,1.1116
1107.00,1.1125
1106.00,1.1133
1105.00,1.1137
1104.00,1.1138
1103.00,1.1139
1102.00,1.1141
1101.00,1.1140
1100.00,1.1134
1099.00,1.1124
1098.00,1.1113
1097.00,1.1104
1096.00,1.1097
1095.00,1.1092
1094.00,1.1087
1093.00,1.1079
1092.00,1.1066
1091.00,1.1052
1090.00,1.1039
1089.00,1.1026
1088.00,1.1013
1087.00,1.1001
1086.00,1.0990
1085.00,1.0981
1084.00,1.0972
1083.00,1.0967
1082.00,1.0964
1081.00,1.0963
1080.00,1.0960
1079.00,1.0956
1078.00,1.0950
1077.00,1.0944
1076.00,1.0940
1075.00,1.0944
1074.00,1.0954
1073.00,1.0964
1072.00,1.0971
1071.00,1.0975
1070.00,1.0980
1069.00,1.0985
1068.00,1.0990
1067.00,1.0996
1066.00,1.1000
1065.00,1.1001
1064.00,1.1001
1063.00,1.1003
1062.00,1.1007
1061.00,1.1012
1060.00,1.1016
1059.00,1.1019
1058.00,1.1019
1057.00,1.1014
1056.00,1.1004
1055.00,1.0996
1054.00,1.0991
1053.00,1.0987
1052.00,1.0978
1051.00,1.0967
1050.00,1.0954
1049.00,1.0941
1048.00,1.0929
1047.00,1.0919
1046.00,1.0906
1045.00,1.0887
1044.00,1.0863
1043.00,1.0840
1042.00,1.0823
1041.00,1.0809
1040.00,1.0798
1039.00,1.0789
1038.00,1.0780
1037.00,1.0769
1036.00,1.0755
1035.00,1.0742
1034.00,1.0733
1033.00,1.0726
1032.00,1.0721
1031.00,1.0719
1030.00,1.0716
1029.00,1.0713
1028.00,1.0714
1027.00,1.0723
1026.00,1.0739
1025.00,1.0756
1024.00,1.0766
1023.00,1.0773
1022.00,1.0781
1021.00,1.0792
1020.00,1.0805
1019.00,1.0821
1018.00,1.0836
1017.00,1.0845
1016.00,1.0848
1015.00,1.0849
1014.00,1.0851
1013.00,1.0853
1012.00,1.0856
1011.00,1.0859
1010.00,1.0860
1009.00,1.0855
1008.00,1.0842
1007.00,1.0828
1006.00,1.0816
1005.00,1.0807
1004.00,1.0797
1003.00,1.0783
1002.00,1.0759
1001.00,1.0728
1000.00,1.0694
