Created as New Dataset,Sample 028 By Administrator Date Monday, February 10 2020
cm-1,A
6000.00,1.2014
5999.00,1.2014
5998.00,1.2013
5997.00,1.2012
5996.00,1.2011
5995.00,1.2009
5994.00,1.2007
5993.00,1.2005
5992.00,1.2005
5991.00,1.2004
5990.00,1.2004
5989.00,1.2004
5988.00,1.2005
5987.00,1.2005
5986.00,1.2005
5985.00,1.2006
5984.00,1.2007
5983.00,1.2008
5982.00,1.2008
5981.00,1.2008
5980.00,1.2007
5979.00,1.2006
5978.00,1.2004
5977.00,1.2002
5976.00,1.2001
5975.00,1.2001
5974.00,1.2001
5973.00,1.2000
5972.00,1.1999
5971.00,1.1999
5970.00,1.2000
5969.00,1.2001
5968.00,1.2002
5967.00,1.2002
5966.00,1.2002
5965.00,1.2002
5964.00,1.2000
5963.00,1.1999
5962.00,1.1996
5961.00,1.1995
5960.00,1.1995
5959.00,1.1996
5958.00,1.1998
5957.00,1.1998
5956.00,1.1998
5955.00,1.1997
5954.00,1.1996
5953.00,1.1995
5952.00,1.1994
5951.00,1.1993
5950.00,1.1993
5949.00,1.1994
5948.00,1.1994
5947.00,1.1995
5946.00,1.1995
5945.00,1.1995
5944.00,1.1996
5943.00,1.1996
5942.00,1.1997
5941.00,1.1996
5940.00,1.1996
5939.00,1.1996
5938.00,1.1994
5937.00,1.1991
5936.00,1.1988
5935.00,1.1987
5934.00,1.1987
5933.00,1.1987
5932.00,1.1987
5931.00,1.1989
5930.00,1.1990
5929.00,1.1990
5928.00,1.1990
5927.00,1.1991
5926.00,1.1991
5925.00,1.1991
5924.00,1.1992
5923.00,1.1992
5922.00,1.1991
5921.00,1.1990
5920.00,1.1989
5919.00,1.1987
5918.00,1.1986
5917.00,1.1985
5916.00,1.1985
5915.00,1.1984
5914.00,1.1984
5913.00,1.1984
5912.00,1.1984
5911.00,1.1985
5910.00,1.1986
5909.00,1.1986
5908.00,1.1986
5907.00,1.1986
5906.00,1.1986
5905.00,1.1986
5904.00,1.1986
5903.00,1.1986
5902.00,1.1986
5901.00,1.1986
5900.00,1.1985
5899.00,1.1985
5898.00,1.1985
5897.00,1.1984
5896.00,1.1984
5895.00,1.1983
5894.00,1.1983
5893.00,1.1981
5892.00,1.1980
5891.00,1.1977
5890.00,1.1975
5889.00,1.1973
5888.00,1.1972
5887.00,1.1971
5886.00,1.1971
5885.00,1.1972
5884.00,1.1974
5883.00,1.1977
5882.00,1.1978
5881.00,1.1979
5880.00,1.1979
5879.00,1.1979
5878.00,1.1977
5877.00,1.1976
5876.00,1.1974
5875.00,1.1972
5874.00,1.1971
5873.00,1.1970
5872.00,1.1969
5871.00,1.1969
5870.00,1.1969
5869.00,1.1969
5868.00,1.1969
5867.00,1.1969
5866.00,1.1969
5865.00,1.1968
5864.00,1.1968
5863.00,1.1968
5862.00,1.1966
5861.00,1.1965
5860.00,1.1964
5859.00,1.1964
5858.00,1.1963
5857.00,1.1963
5856.00,1.1963
5855.00,1.1964
5854.00,1.1964
5853.00,1.1964
5852.00,1.1964
5851.00,1.1965
5850.00,1.1966
5849.00,1.1967
5848.00,1.1967
5847.00,1.1967
5846.00,1.1967
5845.00,1.1965
5844.00,1.1964
5843.00,1.1964
5842.00,1.1964
5841.00,1.1964
5840.00,1.1963
5839.00,1.1963
5838.00,1.1962
5837.00,1.1961
5836.00,1.1961
5835.00,1.1961
5834.00,1.1961
5833.00,1.1962
5832.00,1.1964
5831.00,1.1965
5830.00,1.1965
5829.00,1.1965
5828.00,1.1965
5827.00,1.1965
5826.00,1.1965
5825.00,1.1964
5824.00,1.1964
5823.00,1.1964
5822.00,1.1964
5821.00,1.1963
5820.00,1.1962
5819.00,1.1962
5818.00,1.1962
5817.00,1.1962
5816.00,1.1962
5815.00,1.1962
5814.00,1.1962
5813.00,1.1961
5812.00,1.1961
5811.00,1.1960
5810.00,1.1960
5809.00,1.1960
5808.00,1.1960
5807.00,1.1960
5806.00,1.1960
5805.00,1.1959
5804.00,1.1958
5803.00,1.1956
5802.00,1.1955
5801.00,1.1954
5800.00,1.1954
5799.00,1.1956
5798.00,1.1957
5797.00,1.1957
5796.00,1.1958
5795.00,1.1958
5794.00,1.1958
5793.00,1.1957
5792.00,1.1956
5791.00,1.1955
5790.00,1.1954
5789.00,1.1952
5788.00,1.1951
5787.00,1.1950
5786.00,1.1950
5785.00,1.1949
5784.00,1.1949
5783.00,1.1948
5782.00,1.1948
5781.00,1.1948
5780.00,1.1947
5779.00,1.1948
5778.00,1.1949
5777.00,1.1950
5776.00,1.1951
5775.00,1.1952
5774.00,1.1952
5773.00,1.1952
5772.00,1.1952
5771.00,1.1952
5770.00,1.1952
5769.00,1.1951
5768.00,1.1950
5767.00,1.1949
5766.00,1.1948
5765.00,1.1948
5764.00,1.1947
5763.00,1.1947
5762.00,1.1947
5761.00,1.1947
5760.00,1.1947
5759.00,1.1946
5758.00,1.1945
5757.00,1.1943
5756.00,1.1942
5755.00,1.1941
5754.00,1.1940
5753.00,1.1940
5752.00,1.1941
5751.00,1.1941
5750.00,1.1941
5749.00,1.1942
5748.00,1.1942
5747.00,1.1942
5746.00,1.1941
5745.00,1.1940
5744.00,1.1939
5743.00,1.1939
5742.00,1.1939
5741.00,1.1939
5740.00,1.1941
5739.00,1.1942
5738.00,1.1943
5737.00,1.1943
5736.00,1.1942
5735.00,1.1941
5734.00,1.1941
5733.00,1.1940
5732.00,1.1940
5731.00,1.1940
5730.00,1.1940
5729.00,1.1939
5728.00,1.1939
5727.00,1.1938
5726.00,1.1936
5725.00,1.1935
5724.00,1.1934
5723.00,1.1934
5722.00,1.1933
5721.00,1.1933
5720.00,1.1933
5719.00,1.1934
5718.00,1.1935
5717.00,1.1935
5716.00,1.1934
5715.00,1.1934
5714.00,1.1933
5713.00,1.1933
5712.00,1.1933
5711.00,1.1934
5710.00,1.1935
5709.00,1.1935
5708.00,1.1936
5707.00,1.1936
5706.00,1.1936
5705.00,1.1935
5704.00,1.1935
5703.00,1.1936
5702.00,1.1936
5701.00,1.1935
5700.00,1.1935
5699.00,1.1935
5698.00,1.1935
5697.00,1.1934
5696.00,1.1934
5695.00,1.1933
5694.00,1.1933
5693.00,1.1932
5692.00,1.1932
5691.00,1.1931
5690.00,1.1931
5689.00,1.1930
5688.00,1.1929
5687.00,1.1929
5686.00,1.1929
5685.00,1.1929
5684.00,1.1930
5683.00,1.1930
5682.00,1.1930
5681.00,1.1929
5680.00,1.1928
5679.00,1.1927
5678.00,1.1925
5677.00,1.1924
5676.00,1.1923
5675.00,1.1924
5674.00,1.1924
5673.00,1.1925
5672.00,1.1926
5671.00,1.1927
5670.00,1.1927
5669.00,1.1928
5668.00,1.1927
5667.00,1.1926
5666.00,1.1925
5665.00,1.1923
5664.00,1.1921
5663.00,1.1921
5662.00,1.1920
5661.00,1.1920
5660.00,1.1920
5659.00,1.1920
5658.00,1.1920
5657.00,1.1920
5656.00,1.1920
5655.00,1.1920
5654.00,1.1921
5653.00,1.1921
5652.00,1.1921
5651.00,1.1923
5650.00,1.1924
5649.00,1.1925
5648.00,1.1924
5647.00,1.1924
5646.00,1.1922
5645.00,1.1920
5644.00,1.1918
5643.00,1.1917
5642.00,1.1918
5641.00,1.1919
5640.00,1.1921
5639.00,1.1922
5638.00,1.1922
5637.00,1.1922
5636.00,1.1921
5635.00,1.1920
5634.00,1.1919
5633.00,1.1919
5632.00,1.1919
5631.00,1.1919
5630.00,1.1919
5629.00,1.1919
5628.00,1.1919
5627.00,1.1918
5626.00,1.1917
5625.00,1.1917
5624.00,1.1917
5623.00,1.1917
5622.00,1.1918
5621.00,1.1918
5620.00,1.1919
5619.00,1.1918
5618.00,1.1918
5617.00,1.1917
5616.00,1.1916
5615.00,1.1916
5614.00,1.1916
5613.00,1.1916
5612.00,1.1916
5611.00,1.1916
5610.00,1.1915
5609.00,1.1915
5608.00,1.1914
5607.00,1.1913
5606.00,1.1913
5605.00,1.1912
5604.00,1.1911
5603.00,1.1911
5602.00,1.1912
5601.00,1.1912
5600.00,1.1913
5599.00,1.1913
5598.00,1.1913
5597.00,1.1912
5596.00,1.1911
5595.00,1.1910
5594.00,1.1910
5593.00,1.1909
5592.00,1.1908
5591.00,1.1908
5590.00,1.1908
5589.00,1.1907
5588.00,1.1907
5587.00,1.1907
5586.00,1.1907
5585.00,1.1906
5584.00,1.1906
5583.00,1.1906
5582.00,1.1906
5581.00,1.1906
5580.00,1.1906
5579.00,1.1906
5578.00,1.1906
5577.00,1.1905
5576.00,1.1904
5575.00,1.1904
5574.00,1.1903
5573.00,1.1903
5572.00,1.1904
5571.00,1.1904
5570.00,1.1904
5569.00,1.1903
5568.00,1.1903
5567.00,1.1902
5566.00,1.1902
5565.00,1.1902
5564.00,1.1902
5563.00,1.1902
5562.00,1.1902
5561.00,1.1901
5560.00,1.1901
5559.00,1.1901
5558.00,1.1902
5557.00,1.1902
5556.00,1.1903
5555.00,1.1903
5554.00,1.1902
5553.00,1.1900
5552.00,1.1899
5551.00,1.1898
5550.00,1.1898
5549.00,1.1899
5548.00,1.1900
5547.00,1.1901
5546.00,1.1901
5545.00,1.1901
5544.00,1.1900
5543.00,1.1900
5542.00,1.1899
5541.00,1.1899
5540.00,1.1898
5539.00,1.1898
5538.00,1.1898
5537.00,1.1897
5536.00,1.1897
5535.00,1.1896
5534.00,1.1896
5533.00,1.1896
5532.00,1.1895
5531.00,1.1895
5530.00,1.1895
5529.00,1.1895
5528.00,1.1895
5527.00,1.1895
5526.00,1.1896
5525.00,1.1896
5524.00,1.1895
5523.00,1.1894
5522.00,1.1893
5521.00,1.1892
5520.00,1.1891
5519.00,1.1892
5518.00,1.1892
5517.00,1.1891
5516.00,1.1891
5515.00,1.1891
5514.00,1.1890
5513.00,1.1891
5512.00,1.1892
5511.00,1.1892
5510.00,1.1892
5509.00,1.1892
5508.00,1.1892
5507.00,1.1891
5506.00,1.1890
5505.00,1.1889
5504.00,1.1889
5503.00,1.1888
5502.00,1.1888
5501.00,1.1886
5500.00,1.1885
5499.00,1.1884
5498.00,1.1883
5497.00,1.1883
5496.00,1.1884
5495.00,1.1885
5494.00,1.1886
5493.00,1.1886
5492.00,1.1887
5491.00,1.1887
5490.00,1.1886
5489.00,1.1886
5488.00,1.1885
5487.00,1.1884
5486.00,1.1884
5485.00,1.1884
5484.00,1.1884
5483.00,1.1884
5482.00,1.1883
5481.00,1.1882
5480.00,1.1881
5479.00,1.1881
5478.00,1.1881
5477.00,1.1881
5476.00,1.1881
5475.00,1.1881
5474.00,1.1881
5473.00,1.1880
5472.00,1.1879
5471.00,1.1878
5470.00,1.1876
5469.00,1.1875
5468.00,1.1874
5467.00,1.1874
5466.00,1.1874
5465.00,1.1873
5464.00,1.1873
5463.00,1.1874
5462.00,1.1874
5461.00,1.1874
5460.00,1.1874
5459.00,1.1875
5458.00,1.1875
5457.00,1.1875
5456.00,1.1874
5455.00,1.1873
5454.00,1.1872
5453.00,1.1872
5452.00,1.1872
5451.00,1.1872
5450.00,1.1872
5449.00,1.1873
5448.00,1.1873
5447.00,1.1872
5446.00,1.1871
5445.00,1.1870
5444.00,1.1869
5443.00,1.1870
5442.00,1.1870
5441.00,1.1869
5440.00,1.1870
5439.00,1.1870
5438.00,1.1871
5437.00,1.1870
5436.00,1.1869
5435.00,1.1867
5434.00,1.1866
5433.00,1.1866
5432.00,1.1866
5431.00,1.1866
5430.00,1.1866
5429.00,1.1867
5428.00,1.1868
5427.00,1.1870
5426.00,1.1870
5425.00,1.1870
5424.00,1.1870
5423.00,1.1871
5422.00,1.1871
5421.00,1.1871
5420.00,1.1870
5419.00,1.1870
5418.00,1.1870
5417.00,1.1868
5416.00,1.1866
5415.00,1.1864
5414.00,1.1862
5413.00,1.1860
5412.00,1.1860
5411.00,1.1860
5410.00,1.1860
5409.00,1.1861
5408.00,1.1863
5407.00,1.1863
5406.00,1.1863
5405.00,1.1863
5404.00,1.1862
5403.00,1.1862
5402.00,1.1862
5401.00,1.1863
5400.00,1.1863
5399.00,1.1862
5398.00,1.1861
5397.00,1.1860
5396.00,1.1860
5395.00,1.1860
5394.00,1.1860
5393.00,1.1861
5392.00,1.1861
5391.00,1.1861
5390.00,1.1860
5389.00,1.1859
5388.00,1.1859
5387.00,1.1858
5386.00,1.1858
5385.00,1.1858
5384.00,1.1858
5383.00,1.1858
5382.00,1.1857
5381.00,1.1856
5380.00,1.1856
5379.00,1.1856
5378.00,1.1856
5377.00,1.1856
5376.00,1.1856
5375.00,1.1856
5374.00,1.1856
5373.00,1.1856
5372.00,1.1856
5371.00,1.1856
5370.00,1.1857
5369.00,1.1856
5368.00,1.1856
5367.00,1.1856
5366.00,1.1856
5365.00,1.1856
5364.00,1.1855
5363.00,1.1855
5362.00,1.1855
5361.00,1.1854
5360.00,1.1853
5359.00,1.1853
5358.00,1.1853
5357.00,1.1853
5356.00,1.1854
5355.00,1.1854
5354.00,1.1853
5353.00,1.1853
5352.00,1.1852
5351.00,1.1852
5350.00,1.1851
5349.00,1.1851
5348.00,1.1851
5347.00,1.1852
5346.00,1.1851
5345.00,1.1849
5344.00,1.1847
5343.00,1.1847
5342.00,1.1847
5341.00,1.1847
5340.00,1.1847
5339.00,1.1847
5338.00,1.1846
5337.00,1.1847
5336.00,1.1848
5335.00,1.1849
5334.00,1.1850
5333.00,1.1851
5332.00,1.1851
5331.00,1.1852
5330.00,1.1852
5329.00,1.1852
5328.00,1.1851
5327.00,1.1851
5326.00,1.1851
5325.00,1.1852
5324.00,1.1852
5323.00,1.1851
5322.00,1.1851
5321.00,1.1851
5320.00,1.1851
5319.00,1.1852
5318.00,1.1852
5317.00,1.1851
5316.00,1.1851
5315.00,1.1851
5314.00,1.1851
5313.00,1.1850
5312.00,1.1850
5311.00,1.1850
5310.00,1.1851
5309.00,1.1851
5308.00,1.1850
5307.00,1.1850
5306.00,1.1850
5305.00,1.1849
5304.00,1.1849
5303.00,1.1849
5302.00,1.1849
5301.00,1.1849
5300.00,1.1849
5299.00,1.1849
5298.00,1.1849
5297.00,1.1849
5296.00,1.1848
5295.00,1.1848
5294.00,1.1848
5293.00,1.1848
5292.00,1.1847
5291.00,1.1846
5290.00,1.1846
5289.00,1.1846
5288.00,1.1846
5287.00,1.1847
5286.00,1.1847
5285.00,1.1848
5284.00,1.1848
5283.00,1.1849
5282.00,1.1849
5281.00,1.1849
5280.00,1.1848
5279.00,1.1848
5278.00,1.1848
5277.00,1.1848
5276.00,1.1848
5275.00,1.1849
5274.00,1.1849
5273.00,1.1850
5272.00,1.1850
5271.00,1.1850
5270.00,1.1849
5269.00,1.1848
5268.00,1.1848
5267.00,1.1849
5266.00,1.1849
5265.00,1.1849
5264.00,1.1848
5263.00,1.1848
5262.00,1.1849
5261.00,1.1849
5260.00,1.1849
5259.00,1.1850
5258.00,1.1851
5257.00,1.1852
5256.00,1.1853
5255.00,1.1853
5254.00,1.1853
5253.00,1.1853
5252.00,1.1853
5251.00,1.1853
5250.00,1.1852
5249.00,1.1850
5248.00,1.1850
5247.00,1.1851
5246.00,1.1852
5245.00,1.1852
5244.00,1.1853
5243.00,1.1855
5242.00,1.1857
5241.00,1.1857
5240.00,1.1858
5239.00,1.1858
5238.00,1.1858
5237.00,1.1859
5236.00,1.1860
5235.00,1.1861
5234.00,1.1862
5233.00,1.1863
5232.00,1.1862
5231.00,1.1862
5230.00,1.1861
5229.00,1.1860
5228.00,1.1860
5227.00,1.1860
5226.00,1.1860
5225.00,1.1861
5224.00,1.1862
5223.00,1.1863
5222.00,1.1863
5221.00,1.1864
5220.00,1.1865
5219.00,1.1865
5218.00,1.1866
5217.00,1.1866
5216.00,1.1866
5215.00,1.1866
5214.00,1.1866
5213.00,1.1866
5212.00,1.1866
5211.00,1.1867
5210.00,1.1867
5209.00,1.1867
5208.00,1.1868
5207.00,1.1868
5206.00,1.1868
5205.00,1.1869
5204.00,1.1870
5203.00,1.1870
5202.00,1.1871
5201.00,1.1871
5200.00,1.1871
5199.00,1.1872
5198.00,1.1872
5197.00,1.1872
5196.00,1.1873
5195.00,1.1873
5194.00,1.1874
5193.00,1.1874
5192.00,1.1875
5191.00,1.1876
5190.00,1.1876
5189.00,1.1876
5188.00,1.1876
5187.00,1.1876
5186.00,1.1876
5185.00,1.1876
5184.00,1.1877
5183.00,1.1877
5182.00,1.1878
5181.00,1.1878
5180.00,1.1878
5179.00,1.1879
5178.00,1.1880
5177.00,1.1880
5176.00,1.1881
5175.00,1.1882
5174.00,1.1882
5173.00,1.1883
5172.00,1.1884
5171.00,1.1885
5170.00,1.1886
5169.00,1.1886
5168.00,1.1886
5167.00,1.1885
5166.00,1.1885
5165.00,1.1885
5164.00,1.1886
5163.00,1.1887
5162.00,1.1888
5161.00,1.1888
5160.00,1.1888
5159.00,1.1889
5158.00,1.1888
5157.00,1.1888
5156.00,1.1889
5155.00,1.1889
5154.00,1.1891
5153.00,1.1891
5152.00,1.1892
5151.00,1.1892
5150.00,1.1892
5149.00,1.1892
5148.00,1.1893
5147.00,1.1893
5146.00,1.1894
5145.00,1.1895
5144.00,1.1896
5143.00,1.1897
5142.00,1.1897
5141.00,1.1896
5140.00,1.1896
5139.00,1.1896
5138.00,1.1896
5137.00,1.1896
5136.00,1.1897
5135.00,1.1897
5134.00,1.1898
5133.00,1.1898
5132.00,1.1899
5131.00,1.1899
5130.00,1.1900
5129.00,1.1900
5128.00,1.1900
5127.00,1.1900
5126.00,1.1900
5125.00,1.1900
5124.00,1.1900
5123.00,1.1900
5122.00,1.1900
5121.00,1.1900
5120.00,1.1899
5119.00,1.1899
5118.00,1.1899
5117.00,1.1899
5116.00,1.1899
5115.00,1.1899
5114.00,1.1899
5113.00,1.1898
5112.00,1.1898
5111.00,1.1898
5110.00,1.1898
5109.00,1.1898
5108.00,1.1899
5107.00,1.1899
5106.00,1.1900
5105.00,1.1899
5104.00,1.1899
5103.00,1.1899
5102.00,1.1899
5101.00,1.1899
5100.00,1.1899
5099.00,1.1899
5098.00,1.1898
5097.00,1.1898
5096.00,1.1898
5095.00,1.1898
5094.00,1.1898
5093.00,1.1898
5092.00,1.1899
5091.00,1.1899
5090.00,1.1898
5089.00,1.1898
5088.00,1.1897
5087.00,1.1897
5086.00,1.1897
5085.00,1.1897
5084.00,1.1897
5083.00,1.1897
5082.00,1.1897
5081.00,1.1897
5080.00,1.1896
5079.00,1.1896
5078.00,1.1897
5077.00,1.1897
5076.00,1.1897
5075.00,1.1898
5074.00,1.1897
5073.00,1.1897
5072.00,1.1896
5071.00,1.1895
5070.00,1.1894
5069.00,1.1895
5068.00,1.1895
5067.00,1.1896
5066.00,1.1896
5065.00,1.1896
5064.00,1.1896
5063.00,1.1896
5062.00,1.1896
5061.00,1.1896
5060.00,1.1896
5059.00,1.1896
5058.00,1.1896
5057.00,1.1895
5056.00,1.1895
5055.00,1.1895
5054.00,1.1895
5053.00,1.1895
5052.00,1.1895
5051.00,1.1895
5050.00,1.1896
5049.00,1.1896
5048.00,1.1896
5047.00,1.1895
5046.00,1.1895
5045.00,1.1894
5044.00,1.1893
5043.00,1.1893
5042.00,1.1893
5041.00,1.1893
5040.00,1.1893
5039.00,1.1893
5038.00,1.1893
5037.00,1.1894
5036.00,1.1894
5035.00,1.1894
5034.00,1.1893
5033.00,1.1893
5032.00,1.1892
5031.00,1.1892
5030.00,1.1891
5029.00,1.1891
5028.00,1.1891
5027.00,1.1892
5026.00,1.1892
5025.00,1.1891
5024.00,1.1890
5023.00,1.1890
5022.00,1.1889
5021.00,1.1889
5020.00,1.1889
5019.00,1.1889
5018.00,1.1889
5017.00,1.1889
5016.00,1.1888
5015.00,1.1888
5014.00,1.1887
5013.00,1.1887
5012.00,1.1887
5011.00,1.1887
5010.00,1.1887
5009.00,1.1887
5008.00,1.1887
5007.00,1.1886
5006.00,1.1886
5005.00,1.1886
5004.00,1.1886
5003.00,1.1886
5002.00,1.1886
5001.00,1.1885
5000.00,1.1884
4999.00,1.1884
4998.00,1.1884
4997.00,1.1884
4996.00,1.1884
4995.00,1.1884
4994.00,1.1884
4993.00,1.1883
4992.00,1.1883
4991.00,1.1883
4990.00,1.1882
4989.00,1.1882
4988.00,1.1882
4987.00,1.1882
4986.00,1.1882
4985.00,1.1881
4984.00,1.1880
4983.00,1.1880
4982.00,1.1880
4981.00,1.1880
4980.00,1.1880
4979.00,1.1880
4978.00,1.1879
4977.00,1.1878
4976.00,1.1877
4975.00,1.1876
4974.00,1.1876
4973.00,1.1876
4972.00,1.1876
4971.00,1.1877
4970.00,1.1877
4969.00,1.1876
4968.00,1.1876
4967.00,1.1876
4966.00,1.1876
4965.00,1.1876
4964.00,1.1876
4963.00,1.1876
4962.00,1.1876
4961.00,1.1875
4960.00,1.1875
4959.00,1.1876
4958.00,1.1876
4957.00,1.1875
4956.00,1.1874
4955.00,1.1873
4954.00,1.1873
4953.00,1.1872
4952.00,1.1871
4951.00,1.1871
4950.00,1.1870
4949.00,1.1870
4948.00,1.1870
4947.00,1.1870
4946.00,1.1871
4945.00,1.1871
4944.00,1.1871
4943.00,1.1871
4942.00,1.1870
4941.00,1.1870
4940.00,1.1870
4939.00,1.1870
4938.00,1.1870
4937.00,1.1869
4936.00,1.1869
4935.00,1.1868
4934.00,1.1867
4933.00,1.1867
4932.00,1.1866
4931.00,1.1866
4930.00,1.1865
4929.00,1.1865
4928.00,1.1864
4927.00,1.1864
4926.00,1.1864
4925.00,1.1864
4924.00,1.1864
4923.00,1.1864
4922.00,1.1863
4921.00,1.1863
4920.00,1.1862
4919.00,1.1861
4918.00,1.1861
4917.00,1.1860
4916.00,1.1860
4915.00,1.1859
4914.00,1.1859
4913.00,1.1859
4912.00,1.1858
4911.00,1.1858
4910.00,1.1857
4909.00,1.1857
4908.00,1.1856
4907.00,1.1857
4906.00,1.1857
4905.00,1.1857
4904.00,1.1857
4903.00,1.1856
4902.00,1.1856
4901.00,1.1855
4900.00,1.1854
4899.00,1.1853
4898.00,1.1853
4897.00,1.1852
4896.00,1.1851
4895.00,1.1851
4894.00,1.1851
4893.00,1.1850
4892.00,1.1850
4891.00,1.1850
4890.00,1.1850
4889.00,1.1850
4888.00,1.1849
4887.00,1.1849
4886.00,1.1848
4885.00,1.1848
4884.00,1.1848
4883.00,1.1847
4882.00,1.1847
4881.00,1.1846
4880.00,1.1846
4879.00,1.1846
4878.00,1.1845
4877.00,1.1845
4876.00,1.1845
4875.00,1.1845
4874.00,1.1845
4873.00,1.1845
4872.00,1.1845
4871.00,1.1844
4870.00,1.1844
4869.00,1.1843
4868.00,1.1842
4867.00,1.1842
4866.00,1.1842
4865.00,1.1842
4864.00,1.1842
4863.00,1.1841
4862.00,1.1841
4861.00,1.1840
4860.00,1.1840
4859.00,1.1840
4858.00,1.1840
4857.00,1.1840
4856.00,1.1839
4855.00,1.1839
4854.00,1.1838
4853.00,1.1837
4852.00,1.1836
4851.00,1.1836
4850.00,1.1836
4849.00,1.1836
4848.00,1.1836
4847.00,1.1836
4846.00,1.1836
4845.00,1.1836
4844.00,1.1835
4843.00,1.1834
4842.00,1.1833
4841.00,1.1832
4840.00,1.1832
4839.00,1.1831
4838.00,1.1831
4837.00,1.1831
4836.00,1.1830
4835.00,1.1830
4834.00,1.1830
4833.00,1.1829
4832.00,1.1829
4831.00,1.1829
4830.00,1.1828
4829.00,1.1827
4828.00,1.1827
4827.00,1.1827
4826.00,1.1826
4825.00,1.1826
4824.00,1.1826
4823.00,1.1826
4822.00,1.1825
4821.00,1.1824
4820.00,1.1823
4819.00,1.1823
4818.00,1.1822
4817.00,1.1822
4816.00,1.1822
4815.00,1.1822
4814.00,1.1822
4813.00,1.1821
4812.00,1.1820
4811.00,1.1819
4810.00,1.1818
4809.00,1.1817
4808.00,1.1816
4807.00,1.1815
4806.00,1.1815
4805.00,1.1814
4804.00,1.1814
4803.00,1.1814
4802.00,1.1814
4801.00,1.1813
4800.00,1.1813
4799.00,1.1813
4798.00,1.1813
4797.00,1.1812
4796.00,1.1812
4795.00,1.1812
4794.00,1.1811
4793.00,1.1811
4792.00,1.1810
4791.00,1.1810
4790.00,1.1809
4789.00,1.1808
4788.00,1.1808
4787.00,1.1807
4786.00,1.1807
4785.00,1.1806
4784.00,1.1806
4783.00,1.1806
4782.00,1.1806
4781.00,1.1806
4780.00,1.1805
4779.00,1.1805
4778.00,1.1804
4777.00,1.1803
4776.00,1.1803
4775.00,1.1803
4774.00,1.1802
4773.00,1.1802
4772.00,1.1802
4771.00,1.1802
4770.00,1.1801
4769.00,1.1801
4768.00,1.1801
4767.00,1.1800
4766.00,1.1800
4765.00,1.1799
4764.00,1.1798
4763.00,1.1797
4762.00,1.1796
4761.00,1.1796
4760.00,1.1795
4759.00,1.1794
4758.00,1.1794
4757.00,1.1792
4756.00,1.1791
4755.00,1.1790
4754.00,1.1789
4753.00,1.1789
4752.00,1.1788
4751.00,1.1787
4750.00,1.1786
4749.00,1.1785
4748.00,1.1784
4747.00,1.1784
4746.00,1.1783
4745.00,1.1783
4744.00,1.1782
4743.00,1.1781
4742.00,1.1781
4741.00,1.1780
4740.00,1.1779
4739.00,1.1779
4738.00,1.1778
4737.00,1.1777
4736.00,1.1776
4735.00,1.1775
4734.00,1.1774
4733.00,1.1773
4732.00,1.1772
4731.00,1.1772
4730.00,1.1771
4729.00,1.1770
4728.00,1.1770
4727.00,1.1769
4726.00,1.1769
4725.00,1.1769
4724.00,1.1769
4723.00,1.1768
4722.00,1.1768
4721.00,1.1767
4720.00,1.1766
4719.00,1.1766
4718.00,1.1766
4717.00,1.1766
4716.00,1.1766
4715.00,1.1766
4714.00,1.1766
4713.00,1.1765
4712.00,1.1764
4711.00,1.1764
4710.00,1.1764
4709.00,1.1764
4708.00,1.1764
4707.00,1.1764
4706.00,1.1764
4705.00,1.1764
4704.00,1.1764
4703.00,1.1764
4702.00,1.1764
4701.00,1.1764
4700.00,1.1765
4699.00,1.1765
4698.00,1.1764
4697.00,1.1764
4696.00,1.1763
4695.00,1.1762
4694.00,1.1761
4693.00,1.1760
4692.00,1.1759
4691.00,1.1759
4690.00,1.1758
4689.00,1.1757
4688.00,1.1756
4687.00,1.1755
4686.00,1.1755
4685.00,1.1755
4684.00,1.1754
4683.00,1.1754
4682.00,1.1753
4681.00,1.1753
4680.00,1.1752
4679.00,1.1751
4678.00,1.1751
4677.00,1.1751
4676.00,1.1751
4675.00,1.1752
4674.00,1.1752
4673.00,1.1751
4672.00,1.1751
4671.00,1.1750
4670.00,1.1750
4669.00,1.1750
4668.00,1.1750
4667.00,1.1750
4666.00,1.1750
4665.00,1.1749
4664.00,1.1749
4663.00,1.1749
4662.00,1.1748
4661.00,1.1748
4660.00,1.1748
4659.00,1.1748
4658.00,1.1748
4657.00,1.1748
4656.00,1.1747
4655.00,1.1747
4654.00,1.1746
4653.00,1.1746
4652.00,1.1746
4651.00,1.1746
4650.00,1.1746
4649.00,1.1746
4648.00,1.1746
4647.00,1.1746
4646.00,1.1746
4645.00,1.1745
4644.00,1.1745
4643.00,1.1745
4642.00,1.1744
4641.00,1.1744
4640.00,1.1744
4639.00,1.1744
4638.00,1.1744
4637.00,1.1744
4636.00,1.1744
4635.00,1.1745
4634.00,1.1744
4633.00,1.1744
4632.00,1.1743
4631.00,1.1743
4630.00,1.1743
4629.00,1.1742
4628.00,1.1742
4627.00,1.1741
4626.00,1.1741
4625.00,1.1740
4624.00,1.1740
4623.00,1.1740
4622.00,1.1740
4621.00,1.1741
4620.00,1.1741
4619.00,1.1741
4618.00,1.1741
4617.00,1.1741
4616.00,1.1740
4615.00,1.1740
4614.00,1.1740
4613.00,1.1739
4612.00,1.1739
4611.00,1.1739
4610.00,1.1739
4609.00,1.1738
4608.00,1.1738
4607.00,1.1738
4606.00,1.1738
4605.00,1.1738
4604.00,1.1738
4603.00,1.1738
4602.00,1.1737
4601.00,1.1737
4600.00,1.1737
4599.00,1.1736
4598.00,1.1736
4597.00,1.1736
4596.00,1.1735
4595.00,1.1735
4594.00,1.1735
4593.00,1.1735
4592.00,1.1735
4591.00,1.1735
4590.00,1.1734
4589.00,1.1734
4588.00,1.1733
4587.00,1.1734
4586.00,1.1734
4585.00,1.1734
4584.00,1.1734
4583.00,1.1733
4582.00,1.1733
4581.00,1.1733
4580.00,1.1733
4579.00,1.1733
4578.00,1.1733
4577.00,1.1733
4576.00,1.1732
4575.00,1.1732
4574.00,1.1732
4573.00,1.1732
4572.00,1.1732
4571.00,1.1732
4570.00,1.1732
4569.00,1.1731
4568.00,1.1731
4567.00,1.1731
4566.00,1.1731
4565.00,1.1731
4564.00,1.1730
4563.00,1.1730
4562.00,1.1730
4561.00,1.1730
4560.00,1.1730
4559.00,1.1729
4558.00,1.1729
4557.00,1.1729
4556.00,1.1729
4555.00,1.1729
4554.00,1.1729
4553.00,1.1729
4552.00,1.1729
4551.00,1.1729
4550.00,1.1728
4549.00,1.1728
4548.00,1.1727
4547.00,1.1727
4546.00,1.1727
4545.00,1.1727
4544.00,1.1727
4543.00,1.1727
4542.00,1.1726
4541.00,1.1726
4540.00,1.1725
4539.00,1.1725
4538.00,1.1725
4537.00,1.1725
4536.00,1.1725
4535.00,1.1725
4534.00,1.1725
4533.00,1.1724
4532.00,1.1723
4531.00,1.1723
4530.00,1.1723
4529.00,1.1723
4528.00,1.1722
4527.00,1.1722
4526.00,1.1721
4525.00,1.1721
4524.00,1.1721
4523.00,1.1721
4522.00,1.1721
4521.00,1.1720
4520.00,1.1719
4519.00,1.1719
4518.00,1.1718
4517.00,1.1718
4516.00,1.1718
4515.00,1.1718
4514.00,1.1718
4513.00,1.1718
4512.00,1.1718
4511.00,1.1718
4510.00,1.1718
4509.00,1.1717
4508.00,1.1717
4507.00,1.1717
4506.00,1.1716
4505.00,1.1716
4504.00,1.1716
4503.00,1.1716
4502.00,1.1716
4501.00,1.1716
4500.00,1.1716
4499.00,1.1716
4498.00,1.1716
4497.00,1.1715
4496.00,1.1715
4495.00,1.1715
4494.00,1.1715
4493.00,1.1715
4492.00,1.1715
4491.00,1.1715
4490.00,1.1715
4489.00,1.1714
4488.00,1.1714
4487.00,1.1713
4486.00,1.1713
4485.00,1.1713
4484.00,1.1713
4483.00,1.1713
4482.00,1.1713
4481.00,1.1712
4480.00,1.1712
4479.00,1.1712
4478.00,1.1712
4477.00,1.1712
4476.00,1.1712
4475.00,1.1712
4474.00,1.1712
4473.00,1.1712
4472.00,1.1711
4471.00,1.1711
4470.00,1.1711
4469.00,1.1711
4468.00,1.1711
4467.00,1.1711
4466.00,1.1712
4465.00,1.1712
4464.00,1.1712
4463.00,1.1712
4462.00,1.1711
4461.00,1.1711
4460.00,1.1710
4459.00,1.1710
4458.00,1.1709
4457.00,1.1709
4456.00,1.1709
4455.00,1.1709
4454.00,1.1709
4453.00,1.1709
4452.00,1.1709
4451.00,1.1709
4450.00,1.1709
4449.00,1.1709
4448.00,1.1709
4447.00,1.1709
4446.00,1.1709
4445.00,1.1708
4444.00,1.1708
4443.00,1.1707
4442.00,1.1707
4441.00,1.1706
4440.00,1.1707
4439.00,1.1707
4438.00,1.1707
4437.00,1.1707
4436.00,1.1706
4435.00,1.1705
4434.00,1.1705
4433.00,1.1704
4432.00,1.1704
4431.00,1.1704
4430.00,1.1704
4429.00,1.1704
4428.00,1.1704
4427.00,1.1704
4426.00,1.1704
4425.00,1.1704
4424.00,1.1704
4423.00,1.1703
4422.00,1.1703
4421.00,1.1703
4420.00,1.1703
4419.00,1.1703
4418.00,1.1703
4417.00,1.1703
4416.00,1.1702
4415.00,1.1701
4414.00,1.1701
4413.00,1.1701
4412.00,1.1702
4411.00,1.1702
4410.00,1.1702
4409.00,1.1702
4408.00,1.1701
4407.00,1.1702
4406.00,1.1702
4405.00,1.1702
4404.00,1.1702
4403.00,1.1702
4402.00,1.1702
4401.00,1.1701
4400.00,1.1701
4399.00,1.1700
4398.00,1.1700
4397.00,1.1700
4396.00,1.1699
4395.00,1.1699
4394.00,1.1699
4393.00,1.1699
4392.00,1.1699
4391.00,1.1699
4390.00,1.1700
4389.00,1.1700
4388.00,1.1700
4387.00,1.1700
4386.00,1.1700
4385.00,1.1700
4384.00,1.1700
4383.00,1.1700
4382.00,1.1699
4381.00,1.1699
4380.00,1.1699
4379.00,1.1700
4378.00,1.1700
4377.00,1.1700
4376.00,1.1700
4375.00,1.1700
4374.00,1.1700
4373.00,1.1700
4372.00,1.1700
4371.00,1.1699
4370.00,1.1699
4369.00,1.1699
4368.00,1.1699
4367.00,1.1699
4366.00,1.1699
4365.00,1.1699
4364.00,1.1699
4363.00,1.1699
4362.00,1.1699
4361.00,1.1699
4360.00,1.1699
4359.00,1.1699
4358.00,1.1699
4357.00,1.1699
4356.00,1.1699
4355.00,1.1699
4354.00,1.1699
4353.00,1.1699
4352.00,1.1699
4351.00,1.1699
4350.00,1.1699
4349.00,1.1698
4348.00,1.1698
4347.00,1.1698
4346.00,1.1698
4345.00,1.1698
4344.00,1.1698
4343.00,1.1698
4342.00,1.1698
4341.00,1.1698
4340.00,1.1698
4339.00,1.1698
4338.00,1.1698
4337.00,1.1698
4336.00,1.1698
4335.00,1.1698
4334.00,1.1698
4333.00,1.1698
4332.00,1.1698
4331.00,1.1698
4330.00,1.1698
4329.00,1.1698
4328.00,1.1698
4327.00,1.1698
4326.00,1.1698
4325.00,1.1698
4324.00,1.1697
4323.00,1.1697
4322.00,1.1697
4321.00,1.1697
4320.00,1.1697
4319.00,1.1697
4318.00,1.1697
4317.00,1.1696
4316.00,1.1696
4315.00,1.1695
4314.00,1.1695
4313.00,1.1696
4312.00,1.1696
4311.00,1.1697
4310.00,1.1697
4309.00,1.1697
4308.00,1.1696
4307.00,1.1696
4306.00,1.1696
4305.00,1.1696
4304.00,1.1696
4303.00,1.1696
4302.00,1.1696
4301.00,1.1696
4300.00,1.1696
4299.00,1.1696
4298.00,1.1695
4297.00,1.1695
4296.00,1.1696
4295.00,1.1696
4294.00,1.1696
4293.00,1.1696
4292.00,1.1696
4291.00,1.1696
4290.00,1.1696
4289.00,1.1696
4288.00,1.1696
4287.00,1.1696
4286.00,1.1696
4285.00,1.1697
4284.00,1.1697
4283.00,1.1697
4282.00,1.1698
4281.00,1.1698
4280.00,1.1698
4279.00,1.1698
4278.00,1.1698
4277.00,1.1698
4276.00,1.1698
4275.00,1.1698
4274.00,1.1698
4273.00,1.1698
4272.00,1.1698
4271.00,1.1698
4270.00,1.1698
4269.00,1.1697
4268.00,1.1697
4267.00,1.1697
4266.00,1.1697
4265.00,1.1697
4264.00,1.1697
4263.00,1.1697
4262.00,1.1697
4261.00,1.1697
4260.00,1.1697
4259.00,1.1697
4258.00,1.1697
4257.00,1.1697
4256.00,1.1696
4255.00,1.1696
4254.00,1.1696
4253.00,1.1696
4252.00,1.1696
4251.00,1.1696
4250.00,1.1696
4249.00,1.1696
4248.00,1.1696
4247.00,1.1696
4246.00,1.1696
4245.00,1.1696
4244.00,1.1695
4243.00,1.1695
4242.00,1.1695
4241.00,1.1695
4240.00,1.1695
4239.00,1.1694
4238.00,1.1694
4237.00,1.1693
4236.00,1.1693
4235.00,1.1693
4234.00,1.1693
4233.00,1.1693
4232.00,1.1693
4231.00,1.1693
4230.00,1.1692
4229.00,1.1692
4228.00,1.1692
4227.00,1.1692
4226.00,1.1693
4225.00,1.1693
4224.00,1.1693
4223.00,1.1693
4222.00,1.1692
4221.00,1.1692
4220.00,1.1692
4219.00,1.1692
4218.00,1.1692
4217.00,1.1692
4216.00,1.1692
4215.00,1.1692
4214.00,1.1692
4213.00,1.1691
4212.00,1.1691
4211.00,1.1691
4210.00,1.1691
4209.00,1.1691
4208.00,1.1691
4207.00,1.1691
4206.00,1.1690
4205.00,1.1690
4204.00,1.1689
4203.00,1.1689
4202.00,1.1689
4201.00,1.1688
4200.00,1.1688
4199.00,1.1689
4198.00,1.1689
4197.00,1.1689
4196.00,1.1689
4195.00,1.1689
4194.00,1.1689
4193.00,1.1689
4192.00,1.1689
4191.00,1.1689
4190.00,1.1689
4189.00,1.1688
4188.00,1.1688
4187.00,1.1688
4186.00,1.1687
4185.00,1.1687
4184.00,1.1688
4183.00,1.1688
4182.00,1.1688
4181.00,1.1688
4180.00,1.1688
4179.00,1.1688
4178.00,1.1687
4177.00,1.1687
4176.00,1.1687
4175.00,1.1686
4174.00,1.1686
4173.00,1.1686
4172.00,1.1685
4171.00,1.1685
4170.00,1.1685
4169.00,1.1685
4168.00,1.1685
4167.00,1.1685
4166.00,1.1685
4165.00,1.1684
4164.00,1.1684
4163.00,1.1684
4162.00,1.1684
4161.00,1.1684
4160.00,1.1684
4159.00,1.1684
4158.00,1.1683
4157.00,1.1683
4156.00,1.1683
4155.00,1.1683
4154.00,1.1683
4153.00,1.1682
4152.00,1.1682
4151.00,1.1682
4150.00,1.1681
4149.00,1.1681
4148.00,1.1681
4147.00,1.1681
4146.00,1.1680
4145.00,1.1680
4144.00,1.1679
4143.00,1.1679
4142.00,1.1678
4141.00,1.1678
4140.00,1.1678
4139.00,1.1678
4138.00,1.1678
4137.00,1.1678
4136.00,1.1677
4135.00,1.1677
4134.00,1.1676
4133.00,1.1676
4132.00,1.1676
4131.00,1.1676
4130.00,1.1677
4129.00,1.1677
4128.00,1.1676
4127.00,1.1676
4126.00,1.1675
4125.00,1.1675
4124.00,1.1674
4123.00,1.1674
4122.00,1.1673
4121.00,1.1673
4120.00,1.1673
4119.00,1.1673
4118.00,1.1673
4117.00,1.1673
4116.00,1.1673
4115.00,1.1673
4114.00,1.1673
4113.00,1.1672
4112.00,1.1672
4111.00,1.1671
4110.00,1.1671
4109.00,1.1670
4108.00,1.1670
4107.00,1.1670
4106.00,1.1669
4105.00,1.1669
4104.00,1.1669
4103.00,1.1668
4102.00,1.1668
4101.00,1.1668
4100.00,1.1668
4099.00,1.1668
4098.00,1.1668
4097.00,1.1667
4096.00,1.1668
4095.00,1.1668
4094.00,1.1668
4093.00,1.1668
4092.00,1.1668
4091.00,1.1668
4090.00,1.1668
4089.00,1.1667
4088.00,1.1668
4087.00,1.1668
4086.00,1.1667
4085.00,1.1667
4084.00,1.1667
4083.00,1.1667
4082.00,1.1667
4081.00,1.1666
4080.00,1.1666
4079.00,1.1666
4078.00,1.1665
4077.00,1.1665
4076.00,1.1665
4075.00,1.1665
4074.00,1.1665
4073.00,1.1665
4072.00,1.1665
4071.00,1.1665
4070.00,1.1665
4069.00,1.1664
4068.00,1.1664
4067.00,1.1663
4066.00,1.1663
4065.00,1.1662
4064.00,1.1662
4063.00,1.1661
4062.00,1.1661
4061.00,1.1660
4060.00,1.1660
4059.00,1.1660
4058.00,1.1660
4057.00,1.1660
4056.00,1.1659
4055.00,1.1659
4054.00,1.1659
4053.00,1.1659
4052.00,1.1658
4051.00,1.1657
4050.00,1.1657
4049.00,1.1656
4048.00,1.1656
4047.00,1.1656
4046.00,1.1656
4045.00,1.1656
4044.00,1.1657
4043.00,1.1657
4042.00,1.1657
4041.00,1.1656
4040.00,1.1656
4039.00,1.1655
4038.00,1.1654
4037.00,1.1654
4036.00,1.1653
4035.00,1.1652
4034.00,1.1652
4033.00,1.1652
4032.00,1.1652
4031.00,1.1651
4030.00,1.1651
4029.00,1.1650
4028.00,1.1650
4027.00,1.1649
4026.00,1.1649
4025.00,1.1649
4024.00,1.1649
4023.00,1.1649
4022.00,1.1649
4021.00,1.1649
4020.00,1.1648
4019.00,1.1648
4018.00,1.1647
4017.00,1.1647
4016.00,1.1647
4015.00,1.1646
4014.00,1.1646
4013.00,1.1646
4012.00,1.1646
4011.00,1.1645
4010.00,1.1645
4009.00,1.1645
4008.00,1.1645
4007.00,1.1645
4006.00,1.1644
4005.00,1.1644
4004.00,1.1643
4003.00,1.1643
4002.00,1.1643
4001.00,1.1642
4000.00,1.1642
3999.00,1.1643
3998.00,1.1642
3997.00,1.1642
3996.00,1.1641
3995.00,1.1641
3994.00,1.1640
3993.00,1.1640
3992.00,1.1640
3991.00,1.1639
3990.00,1.1639
3989.00,1.1638
3988.00,1.1637
3987.00,1.1637
3986.00,1.1636
3985.00,1.1636
3984.00,1.1636
3983.00,1.1636
3982.00,1.1636
3981.00,1.1635
3980.00,1.1635
3979.00,1.1634
3978.00,1.1634
3977.00,1.1633
3976.00,1.1633
3975.00,1.1632
3974.00,1.1632
3973.00,1.1632
3972.00,1.1631
3971.00,1.1630
3970.00,1.1629
3969.00,1.1628
3968.00,1.1628
3967.00,1.1627
3966.00,1.1627
3965.00,1.1626
3964.00,1.1626
3963.00,1.1625
3962.00,1.1625
3961.00,1.1624
3960.00,1.1624
3959.00,1.1623
3958.00,1.1623
3957.00,1.1622
3956.00,1.1621
3955.00,1.1621
3954.00,1.1620
3953.00,1.1619
3952.00,1.1619
3951.00,1.1619
3950.00,1.1618
3949.00,1.1616
3948.00,1.1615
3947.00,1.1614
3946.00,1.1614
3945.00,1.1613
3944.00,1.1613
3943.00,1.1612
3942.00,1.1612
3941.00,1.1610
3940.00,1.1609
3939.00,1.1608
3938.00,1.1607
3937.00,1.1606
3936.00,1.1606
3935.00,1.1605
3934.00,1.1604
3933.00,1.1603
3932.00,1.1603
3931.00,1.1603
3930.00,1.1602
3929.00,1.1601
3928.00,1.1601
3927.00,1.1600
3926.00,1.1600
3925.00,1.1599
3924.00,1.1598
3923.00,1.1597
3922.00,1.1595
3921.00,1.1593
3920.00,1.1591
3919.00,1.1590
3918.00,1.1589
3917.00,1.1588
3916.00,1.1588
3915.00,1.1588
3914.00,1.1587
3913.00,1.1587
3912.00,1.1586
3911.00,1.1585
3910.00,1.1585
3909.00,1.1585
3908.00,1.1585
3907.00,1.1585
3906.00,1.1584
3905.00,1.1582
3904.00,1.1580
3903.00,1.1578
3902.00,1.1576
3901.00,1.1574
3900.00,1.1574
3899.00,1.1574
3898.00,1.1574
3897.00,1.1574
3896.00,1.1574
3895.00,1.1574
3894.00,1.1574
3893.00,1.1573
3892.00,1.1572
3891.00,1.1570
3890.00,1.1569
3889.00,1.1567
3888.00,1.1565
3887.00,1.1563
3886.00,1.1562
3885.00,1.1562
3884.00,1.1563
3883.00,1.1564
3882.00,1.1563
3881.00,1.1562
3880.00,1.1561
3879.00,1.1560
3878.00,1.1559
3877.00,1.1558
3876.00,1.1557
3875.00,1.1556
3874.00,1.1556
3873.00,1.1555
3872.00,1.1554
3871.00,1.1552
3870.00,1.1550
3869.00,1.1549
3868.00,1.1549
3867.00,1.1549
3866.00,1.1549
3865.00,1.1548
3864.00,1.1548
3863.00,1.1546
3862.00,1.1544
3861.00,1.1543
3860.00,1.1542
3859.00,1.1540
3858.00,1.1539
3857.00,1.1539
3856.00,1.1540
3855.00,1.1540
3854.00,1.1538
3853.00,1.1535
3852.00,1.1534
3851.00,1.1534
3850.00,1.1534
3849.00,1.1533
3848.00,1.1532
3847.00,1.1531
3846.00,1.1531
3845.00,1.1531
3844.00,1.1530
3843.00,1.1530
3842.00,1.1529
3841.00,1.1528
3840.00,1.1528
3839.00,1.1527
3838.00,1.1527
3837.00,1.1527
3836.00,1.1526
3835.00,1.1525
3834.00,1.1524
3833.00,1.1521
3832.00,1.1519
3831.00,1.1519
3830.00,1.1519
3829.00,1.1519
3828.00,1.1518
3827.00,1.1517
3826.00,1.1516
3825.00,1.1516
3824.00,1.1515
3823.00,1.1514
3822.00,1.1513
3821.00,1.1512
3820.00,1.1511
3819.00,1.1510
3818.00,1.1508
3817.00,1.1507
3816.00,1.1506
3815.00,1.1507
3814.00,1.1507
3813.00,1.1507
3812.00,1.1507
3811.00,1.1506
3810.00,1.1505
3809.00,1.1504
3808.00,1.1503
3807.00,1.1502
3806.00,1.1501
3805.00,1.1501
3804.00,1.1500
3803.00,1.1499
3802.00,1.1500
3801.00,1.1501
3800.00,1.1502
3799.00,1.1501
3798.00,1.1500
3797.00,1.1499
3796.00,1.1497
3795.00,1.1497
3794.00,1.1496
3793.00,1.1496
3792.00,1.1496
3791.00,1.1496
3790.00,1.1496
3789.00,1.1495
3788.00,1.1495
3787.00,1.1495
3786.00,1.1494
3785.00,1.1493
3784.00,1.1493
3783.00,1.1492
3782.00,1.1491
3781.00,1.1490
3780.00,1.1489
3779.00,1.1488
3778.00,1.1487
3777.00,1.1487
3776.00,1.1486
3775.00,1.1485
3774.00,1.1484
3773.00,1.1484
3772.00,1.1483
3771.00,1.1482
3770.00,1.1482
3769.00,1.1481
3768.00,1.1480
3767.00,1.1479
3766.00,1.1478
3765.00,1.1477
3764.00,1.1477
3763.00,1.1477
3762.00,1.1476
3761.00,1.1476
3760.00,1.1476
3759.00,1.1475
3758.00,1.1474
3757.00,1.1472
3756.00,1.1471
3755.00,1.1469
3754.00,1.1467
3753.00,1.1466
3752.00,1.1465
3751.00,1.1463
3750.00,1.1461
3749.00,1.1460
3748.00,1.1459
3747.00,1.1458
3746.00,1.1458
3745.00,1.1457
3744.00,1.1458
3743.00,1.1459
3742.00,1.1459
3741.00,1.1458
3740.00,1.1456
3739.00,1.1455
3738.00,1.1454
3737.00,1.1455
3736.00,1.1456
3735.00,1.1457
3734.00,1.1456
3733.00,1.1455
3732.00,1.1454
3731.00,1.1453
3730.00,1.1454
3729.00,1.1454
3728.00,1.1454
3727.00,1.1455
3726.00,1.1456
3725.00,1.1456
3724.00,1.1456
3723.00,1.1456
3722.00,1.1456
3721.00,1.1455
3720.00,1.1454
3719.00,1.1453
3718.00,1.1453
3717.00,1.1453
3716.00,1.1452
3715.00,1.1451
3714.00,1.1450
3713.00,1.1450
3712.00,1.1451
3711.00,1.1453
3710.00,1.1458
3709.00,1.1463
3708.00,1.1467
3707.00,1.1468
3706.00,1.1467
3705.00,1.1465
3704.00,1.1463
3703.00,1.1462
3702.00,1.1460
3701.00,1.1460
3700.00,1.1459
3699.00,1.1460
3698.00,1.1459
3697.00,1.1460
3696.00,1.1461
3695.00,1.1462
3694.00,1.1462
3693.00,1.1462
3692.00,1.1462
3691.00,1.1462
3690.00,1.1461
3689.00,1.1460
3688.00,1.1460
3687.00,1.1462
3686.00,1.1465
3685.00,1.1468
3684.00,1.1470
3683.00,1.1472
3682.00,1.1473
3681.00,1.1474
3680.00,1.1476
3679.00,1.1477
3678.00,1.1479
3677.00,1.1479
3676.00,1.1480
3675.00,1.1481
3674.00,1.1484
3673.00,1.1487
3672.00,1.1490
3671.00,1.1492
3670.00,1.1495
3669.00,1.1498
3668.00,1.1501
3667.00,1.1505
3666.00,1.1507
3665.00,1.1510
3664.00,1.1513
3663.00,1.1515
3662.00,1.1518
3661.00,1.1520
3660.00,1.1523
3659.00,1.1525
3658.00,1.1527
3657.00,1.1529
3656.00,1.1531
3655.00,1.1534
3654.00,1.1537
3653.00,1.1538
3652.00,1.1539
3651.00,1.1541
3650.00,1.1543
3649.00,1.1546
3648.00,1.1549
3647.00,1.1553
3646.00,1.1556
3645.00,1.1560
3644.00,1.1563
3643.00,1.1565
3642.00,1.1568
3641.00,1.1571
3640.00,1.1574
3639.00,1.1576
3638.00,1.1577
3637.00,1.1579
3636.00,1.1580
3635.00,1.1582
3634.00,1.1583
3633.00,1.1584
3632.00,1.1585
3631.00,1.1585
3630.00,1.1584
3629.00,1.1585
3628.00,1.1587
3627.00,1.1590
3626.00,1.1593
3625.00,1.1596
3624.00,1.1598
3623.00,1.1600
3622.00,1.1603
3621.00,1.1605
3620.00,1.1607
3619.00,1.1609
3618.00,1.1610
3617.00,1.1611
3616.00,1.1611
3615.00,1.1612
3614.00,1.1612
3613.00,1.1612
3612.00,1.1612
3611.00,1.1612
3610.00,1.1612
3609.00,1.1612
3608.00,1.1614
3607.00,1.1616
3606.00,1.1619
3605.00,1.1620
3604.00,1.1622
3603.00,1.1624
3602.00,1.1626
3601.00,1.1628
3600.00,1.1630
3599.00,1.1631
3598.00,1.1632
3597.00,1.1632
3596.00,1.1632
3595.00,1.1631
3594.00,1.1630
3593.00,1.1629
3592.00,1.1629
3591.00,1.1628
3590.00,1.1628
3589.00,1.1628
3588.00,1.1628
3587.00,1.1628
3586.00,1.1629
3585.00,1.1629
3584.00,1.1630
3583.00,1.1631
3582.00,1.1633
3581.00,1.1634
3580.00,1.1634
3579.00,1.1635
3578.00,1.1635
3577.00,1.1635
3576.00,1.1635
3575.00,1.1635
3574.00,1.1635
3573.00,1.1635
3572.00,1.1634
3571.00,1.1634
3570.00,1.1634
3569.00,1.1633
3568.00,1.1633
3567.00,1.1634
3566.00,1.1634
3565.00,1.1635
3564.00,1.1636
3563.00,1.1636
3562.00,1.1636
3561.00,1.1636
3560.00,1.1637
3559.00,1.1637
3558.00,1.1638
3557.00,1.1638
3556.00,1.1638
3555.00,1.1638
3554.00,1.1638
3553.00,1.1638
3552.00,1.1638
3551.00,1.1638
3550.00,1.1639
3549.00,1.1639
3548.00,1.1639
3547.00,1.1638
3546.00,1.1638
3545.00,1.1638
3544.00,1.1638
3543.00,1.1639
3542.00,1.1640
3541.00,1.1641
3540.00,1.1642
3539.00,1.1642
3538.00,1.1643
3537.00,1.1643
3536.00,1.1643
3535.00,1.1644
3534.00,1.1645
3533.00,1.1646
3532.00,1.1646
3531.00,1.1647
3530.00,1.1647
3529.00,1.1648
3528.00,1.1648
3527.00,1.1648
3526.00,1.1649
3525.00,1.1649
3524.00,1.1649
3523.00,1.1650
3522.00,1.1651
3521.00,1.1652
3520.00,1.1654
3519.00,1.1655
3518.00,1.1656
3517.00,1.1656
3516.00,1.1657
3515.00,1.1657
3514.00,1.1658
3513.00,1.1659
3512.00,1.1660
3511.00,1.1661
3510.00,1.1663
3509.00,1.1664
3508.00,1.1665
3507.00,1.1666
3506.00,1.1667
3505.00,1.1668
3504.00,1.1669
3503.00,1.1669
3502.00,1.1670
3501.00,1.1671
3500.00,1.1672
3499.00,1.1674
3498.00,1.1676
3497.00,1.1677
3496.00,1.1679
3495.00,1.1681
3494.00,1.1682
3493.00,1.1683
3492.00,1.1684
3491.00,1.1686
3490.00,1.1688
3489.00,1.1690
3488.00,1.1692
3487.00,1.1694
3486.00,1.1695
3485.00,1.1697
3484.00,1.1699
3483.00,1.1701
3482.00,1.1702
3481.00,1.1704
3480.00,1.1705
3479.00,1.1707
3478.00,1.1709
3477.00,1.1711
3476.00,1.1714
3475.00,1.1716
3474.00,1.1718
3473.00,1.1720
3472.00,1.1722
3471.00,1.1723
3470.00,1.1723
3469.00,1.1724
3468.00,1.1726
3467.00,1.1728
3466.00,1.1732
3465.00,1.1735
3464.00,1.1739
3463.00,1.1742
3462.00,1.1744
3461.00,1.1747
3460.00,1.1749
3459.00,1.1751
3458.00,1.1754
3457.00,1.1757
3456.00,1.1760
3455.00,1.1763
3454.00,1.1766
3453.00,1.1769
3452.00,1.1773
3451.00,1.1776
3450.00,1.1779
3449.00,1.1782
3448.00,1.1785
3447.00,1.1789
3446.00,1.1792
3445.00,1.1796
3444.00,1.1799
3443.00,1.1802
3442.00,1.1806
3441.00,1.1810
3440.00,1.1813
3439.00,1.1816
3438.00,1.1819
3437.00,1.1822
3436.00,1.1825
3435.00,1.1829
3434.00,1.1833
3433.00,1.1838
3432.00,1.1842
3431.00,1.1846
3430.00,1.1850
3429.00,1.1854
3428.00,1.1858
3427.00,1.1863
3426.00,1.1867
3425.00,1.1871
3424.00,1.1874
3423.00,1.1878
3422.00,1.1881
3421.00,1.1884
3420.00,1.1887
3419.00,1.1890
3418.00,1.1893
3417.00,1.1896
3416.00,1.1899
3415.00,1.1901
3414.00,1.1904
3413.00,1.1906
3412.00,1.1908
3411.00,1.1911
3410.00,1.1913
3409.00,1.1916
3408.00,1.1919
3407.00,1.1921
3406.00,1.1924
3405.00,1.1926
3404.00,1.1927
3403.00,1.1928
3402.00,1.1928
3401.00,1.1929
3400.00,1.1932
3399.00,1.1935
3398.00,1.1938
3397.00,1.1941
3396.00,1.1944
3395.00,1.1945
3394.00,1.1946
3393.00,1.1947
3392.00,1.1948
3391.00,1.1949
3390.00,1.1951
3389.00,1.1954
3388.00,1.1957
3387.00,1.1959
3386.00,1.1961
3385.00,1.1963
3384.00,1.1964
3383.00,1.1965
3382.00,1.1966
3381.00,1.1967
3380.00,1.1968
3379.00,1.1969
3378.00,1.1971
3377.00,1.1972
3376.00,1.1974
3375.00,1.1975
3374.00,1.1976
3373.00,1.1976
3372.00,1.1977
3371.00,1.1976
3370.00,1.1976
3369.00,1.1976
3368.00,1.1977
3367.00,1.1979
3366.00,1.1980
3365.00,1.1982
3364.00,1.1984
3363.00,1.1985
3362.00,1.1986
3361.00,1.1987
3360.00,1.1987
3359.00,1.1988
3358.00,1.1988
3357.00,1.1989
3356.00,1.1990
3355.00,1.1990
3354.00,1.1990
3353.00,1.1990
3352.00,1.1989
3351.00,1.1989
3350.00,1.1990
3349.00,1.1991
3348.00,1.1992
3347.00,1.1994
3346.00,1.1994
3345.00,1.1994
3344.00,1.1994
3343.00,1.1994
3342.00,1.1994
3341.00,1.1994
3340.00,1.1994
3339.00,1.1994
3338.00,1.1995
3337.00,1.1995
3336.00,1.1996
3335.00,1.1997
3334.00,1.1997
3333.00,1.1998
3332.00,1.1998
3331.00,1.1998
3330.00,1.1999
3329.00,1.1999
3328.00,1.2000
3327.00,1.2000
3326.00,1.2000
3325.00,1.2000
3324.00,1.2000
3323.00,1.2001
3322.00,1.2002
3321.00,1.2003
3320.00,1.2004
3319.00,1.2005
3318.00,1.2005
3317.00,1.2006
3316.00,1.2007
3315.00,1.2007
3314.00,1.2008
3313.00,1.2008
3312.00,1.2008
3311.00,1.2008
3310.00,1.2008
3309.00,1.2008
3308.00,1.2007
3307.00,1.2007
3306.00,1.2008
3305.00,1.2009
3304.00,1.2012
3303.00,1.2014
3302.00,1.2015
3301.00,1.2017
3300.00,1.2018
3299.00,1.2019
3298.00,1.2019
3297.00,1.2019
3296.00,1.2020
3295.00,1.2020
3294.00,1.2020
3293.00,1.2021
3292.00,1.2022
3291.00,1.2023
3290.00,1.2025
3289.00,1.2026
3288.00,1.2028
3287.00,1.2029
3286.00,1.2030
3285.00,1.2030
3284.00,1.2031
3283.00,1.2032
3282.00,1.2033
3281.00,1.2034
3280.00,1.2035
3279.00,1.2036
3278.00,1.2037
3277.00,1.2038
3276.00,1.2038
3275.00,1.2039
3274.00,1.2039
3273.00,1.2039
3272.00,1.2039
3271.00,1.2040
3270.00,1.2041
3269.00,1.2043
3268.00,1.2045
3267.00,1.2047
3266.00,1.2048
3265.00,1.2050
3264.00,1.2050
3263.00,1.2051
3262.00,1.2053
3261.00,1.2054
3260.00,1.2055
3259.00,1.2055
3258.00,1.2056
3257.00,1.2057
3256.00,1.2058
3255.00,1.2060
3254.00,1.2062
3253.00,1.2063
3252.00,1.2065
3251.00,1.2066
3250.00,1.2068
3249.00,1.2069
3248.00,1.2069
3247.00,1.2070
3246.00,1.2072
3245.00,1.2073
3244.00,1.2075
3243.00,1.2077
3242.00,1.2079
3241.00,1.2081
3240.00,1.2082
3239.00,1.2083
3238.00,1.2084
3237.00,1.2086
3236.00,1.2087
3235.00,1.2087
3234.00,1.2088
3233.00,1.2089
3232.00,1.2090
3231.00,1.2093
3230.00,1.2095
3229.00,1.2097
3228.00,1.2099
3227.00,1.2100
3226.00,1.2102
3225.00,1.2103
3224.00,1.2104
3223.00,1.2104
3222.00,1.2105
3221.00,1.2106
3220.00,1.2106
3219.00,1.2107
3218.00,1.2107
3217.00,1.2108
3216.00,1.2108
3215.00,1.2108
3214.00,1.2108
3213.00,1.2108
3212.00,1.2108
3211.00,1.2108
3210.00,1.2108
3209.00,1.2108
3208.00,1.2107
3207.00,1.2107
3206.00,1.2107
3205.00,1.2106
3204.00,1.2106
3203.00,1.2106
3202.00,1.2105
3201.00,1.2105
3200.00,1.2104
3199.00,1.2104
3198.00,1.2103
3197.00,1.2103
3196.00,1.2103
3195.00,1.2103
3194.00,1.2103
3193.00,1.2102
3192.00,1.2102
3191.00,1.2102
3190.00,1.2102
3189.00,1.2101
3188.00,1.2101
3187.00,1.2101
3186.00,1.2100
3185.00,1.2100
3184.00,1.2100
3183.00,1.2099
3182.00,1.2099
3181.00,1.2099
3180.00,1.2099
3179.00,1.2099
3178.00,1.2099
3177.00,1.2098
3176.00,1.2098
3175.00,1.2098
3174.00,1.2098
3173.00,1.2098
3172.00,1.2098
3171.00,1.2098
3170.00,1.2098
3169.00,1.2097
3168.00,1.2097
3167.00,1.2097
3166.00,1.2097
3165.00,1.2097
3164.00,1.2097
3163.00,1.2097
3162.00,1.2097
3161.00,1.2097
3160.00,1.2097
3159.00,1.2097
3158.00,1.2097
3157.00,1.2097
3156.00,1.2097
3155.00,1.2096
3154.00,1.2096
3153.00,1.2095
3152.00,1.2095
3151.00,1.2096
3150.00,1.2097
3149.00,1.2098
3148.00,1.2099
3147.00,1.2099
3146.00,1.2100
3145.00,1.2100
3144.00,1.2100
3143.00,1.2101
3142.00,1.2101
3141.00,1.2101
3140.00,1.2101
3139.00,1.2101
3138.00,1.2102
3137.00,1.2103
3136.00,1.2104
3135.00,1.2104
3134.00,1.2105
3133.00,1.2105
3132.00,1.2105
3131.00,1.2105
3130.00,1.2106
3129.00,1.2106
3128.00,1.2107
3127.00,1.2108
3126.00,1.2108
3125.00,1.2109
3124.00,1.2109
3123.00,1.2109
3122.00,1.2108
3121.00,1.2108
3120.00,1.2107
3119.00,1.2107
3118.00,1.2107
3117.00,1.2107
3116.00,1.2107
3115.00,1.2108
3114.00,1.2109
3113.00,1.2110
3112.00,1.2111
3111.00,1.2111
3110.00,1.2111
3109.00,1.2111
3108.00,1.2111
3107.00,1.2111
3106.00,1.2111
3105.00,1.2111
3104.00,1.2112
3103.00,1.2112
3102.00,1.2112
3101.00,1.2112
3100.00,1.2111
3099.00,1.2110
3098.00,1.2110
3097.00,1.2110
3096.00,1.2109
3095.00,1.2109
3094.00,1.2108
3093.00,1.2108
3092.00,1.2107
3091.00,1.2106
3090.00,1.2105
3089.00,1.2105
3088.00,1.2104
3087.00,1.2103
3086.00,1.2102
3085.00,1.2101
3084.00,1.2100
3083.00,1.2099
3082.00,1.2097
3081.00,1.2096
3080.00,1.2095
3079.00,1.2094
3078.00,1.2093
3077.00,1.2093
3076.00,1.2093
3075.00,1.2092
3074.00,1.2092
3073.00,1.2091
3072.00,1.2090
3071.00,1.2088
3070.00,1.2086
3069.00,1.2085
3068.00,1.2083
3067.00,1.2082
3066.00,1.2081
3065.00,1.2081
3064.00,1.2081
3063.00,1.2080
3062.00,1.2080
3061.00,1.2079
3060.00,1.2078
3059.00,1.2076
3058.00,1.2075
3057.00,1.2074
3056.00,1.2073
3055.00,1.2072
3054.00,1.2070
3053.00,1.2069
3052.00,1.2067
3051.00,1.2066
3050.00,1.2065
3049.00,1.2064
3048.00,1.2064
3047.00,1.2063
3046.00,1.2061
3045.00,1.2060
3044.00,1.2058
3043.00,1.2057
3042.00,1.2056
3041.00,1.2056
3040.00,1.2055
3039.00,1.2055
3038.00,1.2055
3037.00,1.2054
3036.00,1.2053
3035.00,1.2052
3034.00,1.2051
3033.00,1.2050
3032.00,1.2049
3031.00,1.2048
3030.00,1.2047
3029.00,1.2045
3028.00,1.2044
3027.00,1.2043
3026.00,1.2042
3025.00,1.2041
3024.00,1.2040
3023.00,1.2039
3022.00,1.2038
3021.00,1.2037
3020.00,1.2036
3019.00,1.2034
3018.00,1.2033
3017.00,1.2033
3016.00,1.2032
3015.00,1.2032
3014.00,1.2032
3013.00,1.2031
3012.00,1.2031
3011.00,1.2030
3010.00,1.2030
3009.00,1.2029
3008.00,1.2029
3007.00,1.2027
3006.00,1.2026
3005.00,1.2024
3004.00,1.2023
3003.00,1.2021
3002.00,1.2020
3001.00,1.2019
3000.00,1.2018
2999.00,1.2016
2998.00,1.2015
2997.00,1.2014
2996.00,1.2014
2995.00,1.2013
2994.00,1.2012
2993.00,1.2010
2992.00,1.2009
2991.00,1.2008
2990.00,1.2007
2989.00,1.2006
2988.00,1.2005
2987.00,1.2005
2986.00,1.2004
2985.00,1.2002
2984.00,1.2001
2983.00,1.1999
2982.00,1.1998
2981.00,1.1996
2980.00,1.1995
2979.00,1.1994
2978.00,1.1993
2977.00,1.1993
2976.00,1.1991
2975.00,1.1990
2974.00,1.1989
2973.00,1.1988
2972.00,1.1987
2971.00,1.1986
2970.00,1.1984
2969.00,1.1983
2968.00,1.1982
2967.00,1.1982
2966.00,1.1981
2965.00,1.1981
2964.00,1.1981
2963.00,1.1980
2962.00,1.1980
2961.00,1.1979
2960.00,1.1978
2959.00,1.1978
2958.00,1.1977
2957.00,1.1976
2956.00,1.1975
2955.00,1.1974
2954.00,1.1973
2953.00,1.1971
2952.00,1.1970
2951.00,1.1969
2950.00,1.1967
2949.00,1.1966
2948.00,1.1964
2947.00,1.1962
2946.00,1.1960
2945.00,1.1958
2944.00,1.1956
2943.00,1.1955
2942.00,1.1953
2941.00,1.1952
2940.00,1.1951
2939.00,1.1950
2938.00,1.1949
2937.00,1.1949
2936.00,1.1949
2935.00,1.1949
2934.00,1.1948
2933.00,1.1947
2932.00,1.1946
2931.00,1.1944
2930.00,1.1944
2929.00,1.1943
2928.00,1.1943
2927.00,1.1944
2926.00,1.1944
2925.00,1.1945
2924.00,1.1947
2923.00,1.1948
2922.00,1.1949
2921.00,1.1950
2920.00,1.1951
2919.00,1.1950
2918.00,1.1950
2917.00,1.1949
2916.00,1.1948
2915.00,1.1946
2914.00,1.1945
2913.00,1.1942
2912.00,1.1940
2911.00,1.1939
2910.00,1.1937
2909.00,1.1936
2908.00,1.1934
2907.00,1.1933
2906.00,1.1931
2905.00,1.1930
2904.00,1.1930
2903.00,1.1929
2902.00,1.1928
2901.00,1.1927
2900.00,1.1926
2899.00,1.1925
2898.00,1.1924
2897.00,1.1923
2896.00,1.1922
2895.00,1.1921
2894.00,1.1920
2893.00,1.1919
2892.00,1.1918
2891.00,1.1917
2890.00,1.1916
2889.00,1.1915
2888.00,1.1914
2887.00,1.1913
2886.00,1.1912
2885.00,1.1911
2884.00,1.1910
2883.00,1.1909
2882.00,1.1908
2881.00,1.1907
2880.00,1.1906
2879.00,1.1905
2878.00,1.1904
2877.00,1.1902
2876.00,1.1901
2875.00,1.1899
2874.00,1.1897
2873.00,1.1896
2872.00,1.1895
2871.00,1.1894
2870.00,1.1892
2869.00,1.1891
2868.00,1.1890
2867.00,1.1888
2866.00,1.1887
2865.00,1.1886
2864.00,1.1886
2863.00,1.1887
2862.00,1.1887
2861.00,1.1889
2860.00,1.1890
2859.00,1.1890
2858.00,1.1891
2857.00,1.1891
2856.00,1.1891
2855.00,1.1891
2854.00,1.1891
2853.00,1.1891
2852.00,1.1891
2851.00,1.1891
2850.00,1.1891
2849.00,1.1892
2848.00,1.1891
2847.00,1.1890
2846.00,1.1889
2845.00,1.1888
2844.00,1.1887
2843.00,1.1886
2842.00,1.1884
2841.00,1.1883
2840.00,1.1882
2839.00,1.1881
2838.00,1.1880
2837.00,1.1879
2836.00,1.1879
2835.00,1.1877
2834.00,1.1876
2833.00,1.1875
2832.00,1.1875
2831.00,1.1875
2830.00,1.1874
2829.00,1.1874
2828.00,1.1874
2827.00,1.1873
2826.00,1.1872
2825.00,1.1872
2824.00,1.1871
2823.00,1.1871
2822.00,1.1870
2821.00,1.1869
2820.00,1.1869
2819.00,1.1868
2818.00,1.1867
2817.00,1.1867
2816.00,1.1866
2815.00,1.1865
2814.00,1.1864
2813.00,1.1864
2812.00,1.1864
2811.00,1.1863
2810.00,1.1863
2809.00,1.1862
2808.00,1.1861
2807.00,1.1861
2806.00,1.1860
2805.00,1.1860
2804.00,1.1859
2803.00,1.1858
2802.00,1.1858
2801.00,1.1857
2800.00,1.1857
2799.00,1.1856
2798.00,1.1856
2797.00,1.1856
2796.00,1.1856
2795.00,1.1855
2794.00,1.1855
2793.00,1.1855
2792.00,1.1854
2791.00,1.1854
2790.00,1.1853
2789.00,1.1853
2788.00,1.1853
2787.00,1.1852
2786.00,1.1852
2785.00,1.1852
2784.00,1.1852
2783.00,1.1851
2782.00,1.1851
2781.00,1.1850
2780.00,1.1850
2779.00,1.1849
2778.00,1.1849
2777.00,1.1848
2776.00,1.1848
2775.00,1.1847
2774.00,1.1847
2773.00,1.1846
2772.00,1.1846
2771.00,1.1846
2770.00,1.1846
2769.00,1.1846
2768.00,1.1845
2767.00,1.1845
2766.00,1.1845
2765.00,1.1844
2764.00,1.1844
2763.00,1.1843
2762.00,1.1843
2761.00,1.1842
2760.00,1.1842
2759.00,1.1842
2758.00,1.1841
2757.00,1.1841
2756.00,1.1841
2755.00,1.1840
2754.00,1.1840
2753.00,1.1840
2752.00,1.1840
2751.00,1.1840
2750.00,1.1840
2749.00,1.1839
2748.00,1.1839
2747.00,1.1839
2746.00,1.1838
2745.00,1.1838
2744.00,1.1838
2743.00,1.1838
2742.00,1.1837
2741.00,1.1837
2740.00,1.1837
2739.00,1.1837
2738.00,1.1836
2737.00,1.1836
2736.00,1.1835
2735.00,1.1835
2734.00,1.1835
2733.00,1.1835
2732.00,1.1835
2731.00,1.1834
2730.00,1.1834
2729.00,1.1834
2728.00,1.1834
2727.00,1.1833
2726.00,1.1833
2725.00,1.1833
2724.00,1.1832
2723.00,1.1832
2722.00,1.1832
2721.00,1.1832
2720.00,1.1832
2719.00,1.1831
2718.00,1.1831
2717.00,1.1830
2716.00,1.1830
2715.00,1.1829
2714.00,1.1829
2713.00,1.1829
2712.00,1.1830
2711.00,1.1830
2710.00,1.1830
2709.00,1.1829
2708.00,1.1829
2707.00,1.1829
2706.00,1.1829
2705.00,1.1829
2704.00,1.1828
2703.00,1.1828
2702.00,1.1828
2701.00,1.1828
2700.00,1.1828
2699.00,1.1827
2698.00,1.1827
2697.00,1.1827
2696.00,1.1826
2695.00,1.1826
2694.00,1.1826
2693.00,1.1827
2692.00,1.1827
2691.00,1.1827
2690.00,1.1826
2689.00,1.1826
2688.00,1.1826
2687.00,1.1826
2686.00,1.1826
2685.00,1.1826
2684.00,1.1826
2683.00,1.1826
2682.00,1.1825
2681.00,1.1825
2680.00,1.1825
2679.00,1.1824
2678.00,1.1824
2677.00,1.1824
2676.00,1.1825
2675.00,1.1825
2674.00,1.1825
2673.00,1.1825
2672.00,1.1825
2671.00,1.1825
2670.00,1.1825
2669.00,1.1825
2668.00,1.1824
2667.00,1.1824
2666.00,1.1824
2665.00,1.1824
2664.00,1.1824
2663.00,1.1824
2662.00,1.1824
2661.00,1.1824
2660.00,1.1825
2659.00,1.1825
2658.00,1.1825
2657.00,1.1825
2656.00,1.1825
2655.00,1.1825
2654.00,1.1825
2653.00,1.1825
2652.00,1.1825
2651.00,1.1825
2650.00,1.1825
2649.00,1.1825
2648.00,1.1825
2647.00,1.1825
2646.00,1.1825
2645.00,1.1825
2644.00,1.1825
2643.00,1.1826
2642.00,1.1825
2641.00,1.1825
2640.00,1.1825
2639.00,1.1825
2638.00,1.1825
2637.00,1.1825
2636.00,1.1826
2635.00,1.1826
2634.00,1.1826
2633.00,1.1826
2632.00,1.1826
2631.00,1.1826
2630.00,1.1826
2629.00,1.1826
2628.00,1.1826
2627.00,1.1825
2626.00,1.1825
2625.00,1.1825
2624.00,1.1826
2623.00,1.1826
2622.00,1.1826
2621.00,1.1826
2620.00,1.1826
2619.00,1.1826
2618.00,1.1827
2617.00,1.1827
2616.00,1.1827
2615.00,1.1827
2614.00,1.1827
2613.00,1.1827
2612.00,1.1827
2611.00,1.1827
2610.00,1.1827
2609.00,1.1827
2608.00,1.1827
2607.00,1.1827
2606.00,1.1827
2605.00,1.1828
2604.00,1.1828
2603.00,1.1828
2602.00,1.1828
2601.00,1.1828
2600.00,1.1828
2599.00,1.1828
2598.00,1.1828
2597.00,1.1828
2596.00,1.1828
2595.00,1.1828
2594.00,1.1829
2593.00,1.1829
2592.00,1.1829
2591.00,1.1829
2590.00,1.1829
2589.00,1.1829
2588.00,1.1830
2587.00,1.1830
2586.00,1.1830
2585.00,1.1830
2584.00,1.1830
2583.00,1.1830
2582.00,1.1830
2581.00,1.1831
2580.00,1.1831
2579.00,1.1831
2578.00,1.1831
2577.00,1.1831
2576.00,1.1831
2575.00,1.1831
2574.00,1.1831
2573.00,1.1831
2572.00,1.1831
2571.00,1.1831
2570.00,1.1831
2569.00,1.1831
2568.00,1.1832
2567.00,1.1832
2566.00,1.1833
2565.00,1.1833
2564.00,1.1833
2563.00,1.1833
2562.00,1.1833
2561.00,1.1834
2560.00,1.1834
2559.00,1.1834
2558.00,1.1834
2557.00,1.1834
2556.00,1.1835
2555.00,1.1835
2554.00,1.1836
2553.00,1.1836
2552.00,1.1836
2551.00,1.1836
2550.00,1.1837
2549.00,1.1837
2548.00,1.1837
2547.00,1.1837
2546.00,1.1837
2545.00,1.1837
2544.00,1.1838
2543.00,1.1838
2542.00,1.1838
2541.00,1.1838
2540.00,1.1838
2539.00,1.1838
2538.00,1.1839
2537.00,1.1839
2536.00,1.1840
2535.00,1.1840
2534.00,1.1841
2533.00,1.1841
2532.00,1.1841
2531.00,1.1841
2530.00,1.1841
2529.00,1.1841
2528.00,1.1842
2527.00,1.1842
2526.00,1.1842
2525.00,1.1842
2524.00,1.1843
2523.00,1.1843
2522.00,1.1843
2521.00,1.1844
2520.00,1.1844
2519.00,1.1844
2518.00,1.1844
2517.00,1.1845
2516.00,1.1845
2515.00,1.1845
2514.00,1.1846
2513.00,1.1846
2512.00,1.1847
2511.00,1.1847
2510.00,1.1847
2509.00,1.1847
2508.00,1.1847
2507.00,1.1847
2506.00,1.1847
2505.00,1.1848
2504.00,1.1849
2503.00,1.1849
2502.00,1.1849
2501.00,1.1850
2500.00,1.1850
2499.00,1.1850
2498.00,1.1850
2497.00,1.1850
2496.00,1.1850
2495.00,1.1850
2494.00,1.1851
2493.00,1.1851
2492.00,1.1851
2491.00,1.1851
2490.00,1.1851
2489.00,1.1851
2488.00,1.1852
2487.00,1.1852
2486.00,1.1852
2485.00,1.1852
2484.00,1.1852
2483.00,1.1852
2482.00,1.1852
2481.00,1.1852
2480.00,1.1852
2479.00,1.1852
2478.00,1.1852
2477.00,1.1852
2476.00,1.1852
2475.00,1.1852
2474.00,1.1852
2473.00,1.1852
2472.00,1.1853
2471.00,1.1853
2470.00,1.1853
2469.00,1.1853
2468.00,1.1853
2467.00,1.1853
2466.00,1.1853
2465.00,1.1853
2464.00,1.1853
2463.00,1.1853
2462.00,1.1853
2461.00,1.1853
2460.00,1.1854
2459.00,1.1853
2458.00,1.1853
2457.00,1.1853
2456.00,1.1853
2455.00,1.1852
2454.00,1.1852
2453.00,1.1852
2452.00,1.1852
2451.00,1.1852
2450.00,1.1852
2449.00,1.1852
2448.00,1.1851
2447.00,1.1851
2446.00,1.1850
2445.00,1.1850
2444.00,1.1850
2443.00,1.1849
2442.00,1.1849
2441.00,1.1849
2440.00,1.1848
2439.00,1.1848
2438.00,1.1848
2437.00,1.1847
2436.00,1.1847
2435.00,1.1847
2434.00,1.1846
2433.00,1.1845
2432.00,1.1845
2431.00,1.1845
2430.00,1.1845
2429.00,1.1845
2428.00,1.1844
2427.00,1.1844
2426.00,1.1843
2425.00,1.1843
2424.00,1.1842
2423.00,1.1842
2422.00,1.1842
2421.00,1.1841
2420.00,1.1841
2419.00,1.1841
2418.00,1.1840
2417.00,1.1840
2416.00,1.1840
2415.00,1.1839
2414.00,1.1839
2413.00,1.1838
2412.00,1.1838
2411.00,1.1837
2410.00,1.1837
2409.00,1.1836
2408.00,1.1836
2407.00,1.1835
2406.00,1.1834
2405.00,1.1834
2404.00,1.1833
2403.00,1.1832
2402.00,1.1832
2401.00,1.1831
2400.00,1.1830
2399.00,1.1830
2398.00,1.1829
2397.00,1.1828
2396.00,1.1828
2395.00,1.1827
2394.00,1.1826
2393.00,1.1826
2392.00,1.1825
2391.00,1.1824
2390.00,1.1823
2389.00,1.1823
2388.00,1.1822
2387.00,1.1821
2386.00,1.1821
2385.00,1.1821
2384.00,1.1822
2383.00,1.1823
2382.00,1.1826
2381.00,1.1831
2380.00,1.1837
2379.00,1.1843
2378.00,1.1849
2377.00,1.1854
2376.00,1.1857
2375.00,1.1858
2374.00,1.1858
2373.00,1.1857
2372.00,1.1856
2371.00,1.1855
2370.00,1.1855
2369.00,1.1855
2368.00,1.1856
2367.00,1.1858
2366.00,1.1860
2365.00,1.1862
2364.00,1.1865
2363.00,1.1866
2362.00,1.1868
2361.00,1.1869
2360.00,1.1871
2359.00,1.1871
2358.00,1.1872
2357.00,1.1872
2356.00,1.1873
2355.00,1.1874
2354.00,1.1876
2353.00,1.1880
2352.00,1.1886
2351.00,1.1890
2350.00,1.1893
2349.00,1.1892
2348.00,1.1888
2347.00,1.1883
2346.00,1.1880
2345.00,1.1879
2344.00,1.1879
2343.00,1.1881
2342.00,1.1882
2341.00,1.1884
2340.00,1.1886
2339.00,1.1886
2338.00,1.1885
2337.00,1.1884
2336.00,1.1883
2335.00,1.1882
2334.00,1.1881
2333.00,1.1880
2332.00,1.1879
2331.00,1.1878
2330.00,1.1876
2329.00,1.1876
2328.00,1.1875
2327.00,1.1874
2326.00,1.1873
2325.00,1.1872
2324.00,1.1872
2323.00,1.1872
2322.00,1.1871
2321.00,1.1871
2320.00,1.1870
2319.00,1.1869
2318.00,1.1869
2317.00,1.1869
2316.00,1.1869
2315.00,1.1870
2314.00,1.1871
2313.00,1.1872
2312.00,1.1872
2311.00,1.1872
2310.00,1.1871
2309.00,1.1871
2308.00,1.1871
2307.00,1.1870
2306.00,1.1870
2305.00,1.1869
2304.00,1.1868
2303.00,1.1868
2302.00,1.1867
2301.00,1.1866
2300.00,1.1865
2299.00,1.1865
2298.00,1.1864
2297.00,1.1864
2296.00,1.1863
2295.00,1.1862
2294.00,1.1862
2293.00,1.1861
2292.00,1.1861
2291.00,1.1861
2290.00,1.1860
2289.00,1.1860
2288.00,1.1860
2287.00,1.1860
2286.00,1.1860
2285.00,1.1861
2284.00,1.1862
2283.00,1.1863
2282.00,1.1864
2281.00,1.1864
2280.00,1.1864
2279.00,1.1863
2278.00,1.1862
2277.00,1.1862
2276.00,1.1861
2275.00,1.1861
2274.00,1.1862
2273.00,1.1862
2272.00,1.1862
2271.00,1.1862
2270.00,1.1862
2269.00,1.1862
2268.00,1.1862
2267.00,1.1861
2266.00,1.1861
2265.00,1.1861
2264.00,1.1861
2263.00,1.1861
2262.00,1.1861
2261.00,1.1861
2260.00,1.1861
2259.00,1.1861
2258.00,1.1861
2257.00,1.1862
2256.00,1.1862
2255.00,1.1861
2254.00,1.1861
2253.00,1.1862
2252.00,1.1862
2251.00,1.1862
2250.00,1.1862
2249.00,1.1862
2248.00,1.1862
2247.00,1.1862
2246.00,1.1861
2245.00,1.1861
2244.00,1.1861
2243.00,1.1861
2242.00,1.1860
2241.00,1.1860
2240.00,1.1860
2239.00,1.1860
2238.00,1.1860
2237.00,1.1860
2236.00,1.1860
2235.00,1.1860
2234.00,1.1859
2233.00,1.1859
2232.00,1.1860
2231.00,1.1859
2230.00,1.1859
2229.00,1.1859
2228.00,1.1859
2227.00,1.1859
2226.00,1.1860
2225.00,1.1860
2224.00,1.1860
2223.00,1.1860
2222.00,1.1859
2221.00,1.1859
2220.00,1.1859
2219.00,1.1859
2218.00,1.1858
2217.00,1.1858
2216.00,1.1858
2215.00,1.1858
2214.00,1.1857
2213.00,1.1857
2212.00,1.1857
2211.00,1.1857
2210.00,1.1857
2209.00,1.1857
2208.00,1.1856
2207.00,1.1856
2206.00,1.1856
2205.00,1.1855
2204.00,1.1855
2203.00,1.1855
2202.00,1.1855
2201.00,1.1855
2200.00,1.1855
2199.00,1.1855
2198.00,1.1854
2197.00,1.1854
2196.00,1.1854
2195.00,1.1854
2194.00,1.1853
2193.00,1.1853
2192.00,1.1853
2191.00,1.1853
2190.00,1.1852
2189.00,1.1852
2188.00,1.1852
2187.00,1.1851
2186.00,1.1851
2185.00,1.1851
2184.00,1.1850
2183.00,1.1850
2182.00,1.1850
2181.00,1.1850
2180.00,1.1850
2179.00,1.1849
2178.00,1.1849
2177.00,1.1849
2176.00,1.1849
2175.00,1.1848
2174.00,1.1847
2173.00,1.1847
2172.00,1.1846
2171.00,1.1846
2170.00,1.1845
2169.00,1.1845
2168.00,1.1845
2167.00,1.1844
2166.00,1.1843
2165.00,1.1843
2164.00,1.1842
2163.00,1.1842
2162.00,1.1842
2161.00,1.1841
2160.00,1.1841
2159.00,1.1840
2158.00,1.1840
2157.00,1.1839
2156.00,1.1839
2155.00,1.1839
2154.00,1.1838
2153.00,1.1838
2152.00,1.1837
2151.00,1.1836
2150.00,1.1836
2149.00,1.1835
2148.00,1.1835
2147.00,1.1834
2146.00,1.1834
2145.00,1.1834
2144.00,1.1833
2143.00,1.1833
2142.00,1.1832
2141.00,1.1831
2140.00,1.1831
2139.00,1.1830
2138.00,1.1829
2137.00,1.1829
2136.00,1.1829
2135.00,1.1828
2134.00,1.1827
2133.00,1.1827
2132.00,1.1826
2131.00,1.1825
2130.00,1.1825
2129.00,1.1824
2128.00,1.1824
2127.00,1.1823
2126.00,1.1822
2125.00,1.1821
2124.00,1.1821
2123.00,1.1820
2122.00,1.1819
2121.00,1.1819
2120.00,1.1818
2119.00,1.1818
2118.00,1.1817
2117.00,1.1817
2116.00,1.1816
2115.00,1.1816
2114.00,1.1815
2113.00,1.1814
2112.00,1.1813
2111.00,1.1813
2110.00,1.1812
2109.00,1.1811
2108.00,1.1810
2107.00,1.1809
2106.00,1.1809
2105.00,1.1808
2104.00,1.1808
2103.00,1.1807
2102.00,1.1807
2101.00,1.1806
2100.00,1.1806
2099.00,1.1805
2098.00,1.1804
2097.00,1.1804
2096.00,1.1803
2095.00,1.1802
2094.00,1.1802
2093.00,1.1801
2092.00,1.1800
2091.00,1.1799
2090.00,1.1798
2089.00,1.1798
2088.00,1.1797
2087.00,1.1796
2086.00,1.1795
2085.00,1.1795
2084.00,1.1794
2083.00,1.1793
2082.00,1.1793
2081.00,1.1792
2080.00,1.1791
2079.00,1.1790
2078.00,1.1789
2077.00,1.1789
2076.00,1.1788
2075.00,1.1787
2074.00,1.1786
2073.00,1.1786
2072.00,1.1785
2071.00,1.1784
2070.00,1.1784
2069.00,1.1783
2068.00,1.1782
2067.00,1.1781
2066.00,1.1780
2065.00,1.1779
2064.00,1.1778
2063.00,1.1777
2062.00,1.1776
2061.00,1.1776
2060.00,1.1775
2059.00,1.1775
2058.00,1.1774
2057.00,1.1773
2056.00,1.1773
2055.00,1.1772
2054.00,1.1771
2053.00,1.1771
2052.00,1.1770
2051.00,1.1769
2050.00,1.1768
2049.00,1.1767
2048.00,1.1767
2047.00,1.1766
2046.00,1.1765
2045.00,1.1764
2044.00,1.1763
2043.00,1.1763
2042.00,1.1762
2041.00,1.1761
2040.00,1.1761
2039.00,1.1760
2038.00,1.1759
2037.00,1.1758
2036.00,1.1758
2035.00,1.1757
2034.00,1.1756
2033.00,1.1755
2032.00,1.1755
2031.00,1.1754
2030.00,1.1753
2029.00,1.1752
2028.00,1.1752
2027.00,1.1751
2026.00,1.1750
2025.00,1.1750
2024.00,1.1749
2023.00,1.1748
2022.00,1.1748
2021.00,1.1747
2020.00,1.1747
2019.00,1.1746
2018.00,1.1745
2017.00,1.1745
2016.00,1.1744
2015.00,1.1743
2014.00,1.1742
2013.00,1.1741
2012.00,1.1741
2011.00,1.1740
2010.00,1.1740
2009.00,1.1739
2008.00,1.1738
2007.00,1.1738
2006.00,1.1737
2005.00,1.1737
2004.00,1.1737
2003.00,1.1736
2002.00,1.1735
2001.00,1.1735
2000.00,1.1734
1999.00,1.1734
1998.00,1.1733
1997.00,1.1733
1996.00,1.1732
1995.00,1.1732
1994.00,1.1731
1993.00,1.1731
1992.00,1.1731
1991.00,1.1730
1990.00,1.1729
1989.00,1.1728
1988.00,1.1728
1987.00,1.1727
1986.00,1.1726
1985.00,1.1726
1984.00,1.1726
1983.00,1.1725
1982.00,1.1725
1981.00,1.1724
1980.00,1.1724
1979.00,1.1723
1978.00,1.1722
1977.00,1.1722
1976.00,1.1722
1975.00,1.1721
1974.00,1.1720
1973.00,1.1720
1972.00,1.1719
1971.00,1.1719
1970.00,1.1719
1969.00,1.1719
1968.00,1.1719
1967.00,1.1719
1966.00,1.1718
1965.00,1.1717
1964.00,1.1717
1963.00,1.1716
1962.00,1.1716
1961.00,1.1715
1960.00,1.1715
1959.00,1.1715
1958.00,1.1715
1957.00,1.1716
1956.00,1.1715
1955.00,1.1715
1954.00,1.1714
1953.00,1.1713
1952.00,1.1713
1951.00,1.1713
1950.00,1.1712
1949.00,1.1713
1948.00,1.1713
1947.00,1.1712
1946.00,1.1712
1945.00,1.1712
1944.00,1.1713
1943.00,1.1713
1942.00,1.1712
1941.00,1.1712
1940.00,1.1711
1939.00,1.1710
1938.00,1.1710
1937.00,1.1710
1936.00,1.1710
1935.00,1.1710
1934.00,1.1710
1933.00,1.1710
1932.00,1.1710
1931.00,1.1709
1930.00,1.1709
1929.00,1.1709
1928.00,1.1709
1927.00,1.1709
1926.00,1.1709
1925.00,1.1709
1924.00,1.1710
1923.00,1.1709
1922.00,1.1708
1921.00,1.1709
1920.00,1.1710
1919.00,1.1711
1918.00,1.1710
1917.00,1.1709
1916.00,1.1708
1915.00,1.1707
1914.00,1.1707
1913.00,1.1707
1912.00,1.1708
1911.00,1.1709
1910.00,1.1709
1909.00,1.1709
1908.00,1.1710
1907.00,1.1709
1906.00,1.1708
1905.00,1.1708
1904.00,1.1708
1903.00,1.1708
1902.00,1.1707
1901.00,1.1708
1900.00,1.1709
1899.00,1.1709
1898.00,1.1708
1897.00,1.1709
1896.00,1.1710
1895.00,1.1709
1894.00,1.1708
1893.00,1.1709
1892.00,1.1710
1891.00,1.1711
1890.00,1.1710
1889.00,1.1710
1888.00,1.1710
1887.00,1.1709
1886.00,1.1708
1885.00,1.1709
1884.00,1.1709
1883.00,1.1709
1882.00,1.1708
1881.00,1.1709
1880.00,1.1710
1879.00,1.1709
1878.00,1.1709
1877.00,1.1709
1876.00,1.1709
1875.00,1.1709
1874.00,1.1708
1873.00,1.1708
1872.00,1.1709
1871.00,1.1711
1870.00,1.1712
1869.00,1.1713
1868.00,1.1713
1867.00,1.1711
1866.00,1.1709
1865.00,1.1709
1864.00,1.1710
1863.00,1.1710
1862.00,1.1709
1861.00,1.1710
1860.00,1.1711
1859.00,1.1711
1858.00,1.1710
1857.00,1.1710
1856.00,1.1711
1855.00,1.1711
1854.00,1.1711
1853.00,1.1711
1852.00,1.1711
1851.00,1.1711
1850.00,1.1711
1849.00,1.1711
1848.00,1.1712
1847.00,1.1714
1846.00,1.1716
1845.00,1.1718
1844.00,1.1718
1843.00,1.1715
1842.00,1.1712
1841.00,1.1711
1840.00,1.1712
1839.00,1.1712
1838.00,1.1712
1837.00,1.1713
1836.00,1.1714
1835.00,1.1714
1834.00,1.1714
1833.00,1.1715
1832.00,1.1717
1831.00,1.1718
1830.00,1.1719
1829.00,1.1718
1828.00,1.1717
1827.00,1.1716
1826.00,1.1716
1825.00,1.1717
1824.00,1.1718
1823.00,1.1718
1822.00,1.1718
1821.00,1.1719
1820.00,1.1720
1819.00,1.1720
1818.00,1.1720
1817.00,1.1720
1816.00,1.1722
1815.00,1.1722
1814.00,1.1722
1813.00,1.1722
1812.00,1.1723
1811.00,1.1723
1810.00,1.1723
1809.00,1.1723
1808.00,1.1724
1807.00,1.1725
1806.00,1.1724
1805.00,1.1724
1804.00,1.1725
1803.00,1.1726
1802.00,1.1725
1801.00,1.1725
1800.00,1.1726
1799.00,1.1726
1798.00,1.1725
1797.00,1.1726
1796.00,1.1727
1795.00,1.1728
1794.00,1.1727
1793.00,1.1728
1792.00,1.1729
1791.00,1.1729
1790.00,1.1729
1789.00,1.1729
1788.00,1.1730
1787.00,1.1731
1786.00,1.1731
1785.00,1.1732
1784.00,1.1733
1783.00,1.1734
1782.00,1.1734
1781.00,1.1735
1780.00,1.1735
1779.00,1.1736
1778.00,1.1736
1777.00,1.1737
1776.00,1.1738
1775.00,1.1740
1774.00,1.1741
1773.00,1.1741
1772.00,1.1741
1771.00,1.1742
1770.00,1.1742
1769.00,1.1743
1768.00,1.1744
1767.00,1.1745
1766.00,1.1745
1765.00,1.1746
1764.00,1.1747
1763.00,1.1749
1762.00,1.1751
1761.00,1.1750
1760.00,1.1750
1759.00,1.1752
1758.00,1.1753
1757.00,1.1753
1756.00,1.1752
1755.00,1.1751
1754.00,1.1751
1753.00,1.1750
1752.00,1.1748
1751.00,1.1749
1750.00,1.1751
1749.00,1.1754
1748.00,1.1755
1747.00,1.1757
1746.00,1.1759
1745.00,1.1761
1744.00,1.1762
1743.00,1.1763
1742.00,1.1763
1741.00,1.1764
1740.00,1.1764
1739.00,1.1764
1738.00,1.1764
1737.00,1.1764
1736.00,1.1763
1735.00,1.1762
1734.00,1.1761
1733.00,1.1763
1732.00,1.1766
1731.00,1.1769
1730.00,1.1771
1729.00,1.1773
1728.00,1.1774
1727.00,1.1775
1726.00,1.1775
1725.00,1.1776
1724.00,1.1777
1723.00,1.1777
1722.00,1.1775
1721.00,1.1775
1720.00,1.1777
1719.00,1.1778
1718.00,1.1776
1717.00,1.1776
1716.00,1.1780
1715.00,1.1781
1714.00,1.1778
1713.00,1.1777
1712.00,1.1781
1711.00,1.1782
1710.00,1.1781
1709.00,1.1781
1708.00,1.1783
1707.00,1.1784
1706.00,1.1782
1705.00,1.1782
1704.00,1.1784
1703.00,1.1784
1702.00,1.1782
1701.00,1.1781
1700.00,1.1782
1699.00,1.1782
1698.00,1.1783
1697.00,1.1787
1696.00,1.1792
1695.00,1.1794
1694.00,1.1792
1693.00,1.1791
1692.00,1.1790
1691.00,1.1790
1690.00,1.1790
1689.00,1.1790
1688.00,1.1790
1687.00,1.1792
1686.00,1.1796
1685.00,1.1799
1684.00,1.1799
1683.00,1.1797
1682.00,1.1797
1681.00,1.1797
1680.00,1.1795
1679.00,1.1793
1678.00,1.1794
1677.00,1.1795
1676.00,1.1793
1675.00,1.1792
1674.00,1.1794
1673.00,1.1795
1672.00,1.1795
1671.00,1.1794
1670.00,1.1796
1669.00,1.1798
1668.00,1.1798
1667.00,1.1798
1666.00,1.1800
1665.00,1.1802
1664.00,1.1802
1663.00,1.1801
1662.00,1.1801
1661.00,1.1802
1660.00,1.1801
1659.00,1.1801
1658.00,1.1803
1657.00,1.1804
1656.00,1.1803
1655.00,1.1804
1654.00,1.1806
1653.00,1.1807
1652.00,1.1806
1651.00,1.1807
1650.00,1.1807
1649.00,1.1805
1648.00,1.1804
1647.00,1.1805
1646.00,1.1805
1645.00,1.1806
1644.00,1.1806
1643.00,1.1806
1642.00,1.1806
1641.00,1.1805
1640.00,1.1805
1639.00,1.1805
1638.00,1.1806
1637.00,1.1806
1636.00,1.1806
1635.00,1.1806
1634.00,1.1807
1633.00,1.1807
1632.00,1.1808
1631.00,1.1807
1630.00,1.1807
1629.00,1.1807
1628.00,1.1807
1627.00,1.1806
1626.00,1.1807
1625.00,1.1807
1624.00,1.1806
1623.00,1.1805
1622.00,1.1806
1621.00,1.1807
1620.00,1.1807
1619.00,1.1808
1618.00,1.1810
1617.00,1.1811
1616.00,1.1811
1615.00,1.1811
1614.00,1.1811
1613.00,1.1812
1612.00,1.1811
1611.00,1.1810
1610.00,1.1811
1609.00,1.1814
1608.00,1.1815
1607.00,1.1815
1606.00,1.1817
1605.00,1.1818
1604.00,1.1818
1603.00,1.1817
1602.00,1.1819
1601.00,1.1819
1600.00,1.1819
1599.00,1.1818
1598.00,1.1820
1597.00,1.1820
1596.00,1.1820
1595.00,1.1819
1594.00,1.1820
1593.00,1.1821
1592.00,1.1820
1591.00,1.1820
1590.00,1.1821
1589.00,1.1821
1588.00,1.1821
1587.00,1.1820
1586.00,1.1821
1585.00,1.1822
1584.00,1.1821
1583.00,1.1820
1582.00,1.1822
1581.00,1.1824
1580.00,1.1824
1579.00,1.1824
1578.00,1.1826
1577.00,1.1828
1576.00,1.1826
1575.00,1.1824
1574.00,1.1825
1573.00,1.1825
1572.00,1.1823
1571.00,1.1822
1570.00,1.1823
1569.00,1.1823
1568.00,1.1820
1567.00,1.1819
1566.00,1.1820
1565.00,1.1822
1564.00,1.1821
1563.00,1.1822
1562.00,1.1826
1561.00,1.1828
1560.00,1.1826
1559.00,1.1824
1558.00,1.1825
1557.00,1.1826
1556.00,1.1825
1555.00,1.1824
1554.00,1.1824
1553.00,1.1824
1552.00,1.1822
1551.00,1.1822
1550.00,1.1823
1549.00,1.1824
1548.00,1.1822
1547.00,1.1821
1546.00,1.1823
1545.00,1.1825
1544.00,1.1826
1543.00,1.1826
1542.00,1.1826
1541.00,1.1826
1540.00,1.1825
1539.00,1.1824
1538.00,1.1825
1537.00,1.1827
1536.00,1.1828
1535.00,1.1827
1534.00,1.1827
1533.00,1.1827
1532.00,1.1827
1531.00,1.1826
1530.00,1.1825
1529.00,1.1826
1528.00,1.1827
1527.00,1.1827
1526.00,1.1825
1525.00,1.1824
1524.00,1.1823
1523.00,1.1823
1522.00,1.1823
1521.00,1.1823
1520.00,1.1824
1519.00,1.1824
1518.00,1.1823
1517.00,1.1822
1516.00,1.1822
1515.00,1.1822
1514.00,1.1822
1513.00,1.1821
1512.00,1.1821
1511.00,1.1822
1510.00,1.1821
1509.00,1.1818
1508.00,1.1817
1507.00,1.1817
1506.00,1.1815
1505.00,1.1815
1504.00,1.1816
1503.00,1.1816
1502.00,1.1815
1501.00,1.1812
1500.00,1.1810
1499.00,1.1810
1498.00,1.1808
1497.00,1.1807
1496.00,1.1810
1495.00,1.1816
1494.00,1.1822
1493.00,1.1826
1492.00,1.1829
1491.00,1.1831
1490.00,1.1831
1489.00,1.1831
1488.00,1.1832
1487.00,1.1831
1486.00,1.1829
1485.00,1.1828
1484.00,1.1828
1483.00,1.1826
1482.00,1.1824
1481.00,1.1823
1480.00,1.1823
1479.00,1.1821
1478.00,1.1819
1477.00,1.1818
1476.00,1.1818
1475.00,1.1816
1474.00,1.1814
1473.00,1.1813
1472.00,1.1813
1471.00,1.1814
1470.00,1.1814
1469.00,1.1815
1468.00,1.1816
1467.00,1.1816
1466.00,1.1815
1465.00,1.1814
1464.00,1.1814
1463.00,1.1814
1462.00,1.1813
1461.00,1.1811
1460.00,1.1811
1459.00,1.1812
1458.00,1.1811
1457.00,1.1807
1456.00,1.1803
1455.00,1.1803
1454.00,1.1805
1453.00,1.1807
1452.00,1.1809
1451.00,1.1813
1450.00,1.1816
1449.00,1.1817
1448.00,1.1818
1447.00,1.1819
1446.00,1.1819
1445.00,1.1815
1444.00,1.1813
1443.00,1.1813
1442.00,1.1813
1441.00,1.1811
1440.00,1.1809
1439.00,1.1810
1438.00,1.1810
1437.00,1.1808
1436.00,1.1806
1435.00,1.1807
1434.00,1.1808
1433.00,1.1807
1432.00,1.1805
1431.00,1.1807
1430.00,1.1808
1429.00,1.1807
1428.00,1.1805
1427.00,1.1805
1426.00,1.1806
1425.00,1.1803
1424.00,1.1801
1423.00,1.1802
1422.00,1.1805
1421.00,1.1806
1420.00,1.1805
1419.00,1.1805
1418.00,1.1805
1417.00,1.1801
1416.00,1.1799
1415.00,1.1800
1414.00,1.1801
1413.00,1.1800
1412.00,1.1798
1411.00,1.1798
1410.00,1.1799
1409.00,1.1798
1408.00,1.1796
1407.00,1.1795
1406.00,1.1796
1405.00,1.1796
1404.00,1.1796
1403.00,1.1797
1402.00,1.1799
1401.00,1.1799
1400.00,1.1797
1399.00,1.1797
1398.00,1.1798
1397.00,1.1798
1396.00,1.1798
1395.00,1.1798
1394.00,1.1798
1393.00,1.1796
1392.00,1.1794
1391.00,1.1793
1390.00,1.1794
1389.00,1.1794
1388.00,1.1793
1387.00,1.1791
1386.00,1.1790
1385.00,1.1790
1384.00,1.1790
1383.00,1.1790
1382.00,1.1791
1381.00,1.1790
1380.00,1.1789
1379.00,1.1788
1378.00,1.1787
1377.00,1.1787
1376.00,1.1786
1375.00,1.1786
1374.00,1.1786
1373.00,1.1786
1372.00,1.1785
1371.00,1.1783
1370.00,1.1783
1369.00,1.1782
1368.00,1.1781
1367.00,1.1781
1366.00,1.1781
1365.00,1.1782
1364.00,1.1782
1363.00,1.1782
1362.00,1.1781
1361.00,1.1780
1360.00,1.1779
1359.00,1.1778
1358.00,1.1777
1357.00,1.1777
1356.00,1.1777
1355.00,1.1777
1354.00,1.1777
1353.00,1.1777
1352.00,1.1776
1351.00,1.1776
1350.00,1.1776
1349.00,1.1775
1348.00,1.1774
1347.00,1.1774
1346.00,1.1773
1345.00,1.1773
1344.00,1.1772
1343.00,1.1771
1342.00,1.1771
1341.00,1.1771
1340.00,1.1770
1339.00,1.1770
1338.00,1.1770
1337.00,1.1770
1336.00,1.1769
1335.00,1.1769
1334.00,1.1769
1333.00,1.1768
1332.00,1.1768
1331.00,1.1768
1330.00,1.1768
1329.00,1.1767
1328.00,1.1766
1327.00,1.1765
1326.00,1.1765
1325.00,1.1765
1324.00,1.1764
1323.00,1.1763
1322.00,1.1763
1321.00,1.1763
1320.00,1.1762
1319.00,1.1762
1318.00,1.1762
1317.00,1.1761
1316.00,1.1760
1315.00,1.1760
1314.00,1.1760
1313.00,1.1760
1312.00,1.1759
1311.00,1.1758
1310.00,1.1758
1309.00,1.1758
1308.00,1.1756
1307.00,1.1755
1306.00,1.1755
1305.00,1.1754
1304.00,1.1754
1303.00,1.1753
1302.00,1.1753
1301.00,1.1753
1300.00,1.1752
1299.00,1.1752
1298.00,1.1752
1297.00,1.1751
1296.00,1.1751
1295.00,1.1750
1294.00,1.1750
1293.00,1.1750
1292.00,1.1749
1291.00,1.1748
1290.00,1.1748
1289.00,1.1748
1288.00,1.1747
1287.00,1.1746
1286.00,1.1746
1285.00,1.1746
1284.00,1.1745
1283.00,1.1744
1282.00,1.1744
1281.00,1.1743
1280.00,1.1743
1279.00,1.1743
1278.00,1.1743
1277.00,1.1743
1276.00,1.1742
1275.00,1.1741
1274.00,1.1741
1273.00,1.1740
1272.00,1.1739
1271.00,1.1739
1270.00,1.1739
1269.00,1.1739
1268.00,1.1738
1267.00,1.1739
1266.00,1.1739
1265.00,1.1740
1264.00,1.1740
1263.00,1.1742
1262.00,1.1744
1261.00,1.1746
1260.00,1.1747
1259.00,1.1748
1258.00,1.1749
1257.00,1.1750
1256.00,1.1749
1255.00,1.1748
1254.00,1.1748
1253.00,1.1747
1252.00,1.1746
1251.00,1.1745
1250.00,1.1745
1249.00,1.1745
1248.00,1.1745
1247.00,1.1746
1246.00,1.1746
1245.00,1.1747
1244.00,1.1747
1243.00,1.1747
1242.00,1.1748
1241.00,1.1749
1240.00,1.1748
1239.00,1.1749
1238.00,1.1750
1237.00,1.1751
1236.00,1.1751
1235.00,1.1752
1234.00,1.1753
1233.00,1.1753
1232.00,1.1753
1231.00,1.1753
1230.00,1.1754
1229.00,1.1754
1228.00,1.1754
1227.00,1.1754
1226.00,1.1755
1225.00,1.1756
1224.00,1.1756
1223.00,1.1756
1222.00,1.1757
1221.00,1.1757
1220.00,1.1757
1219.00,1.1757
1218.00,1.1758
1217.00,1.1759
1216.00,1.1759
1215.00,1.1760
1214.00,1.1761
1213.00,1.1761
1212.00,1.1761
1211.00,1.1761
1210.00,1.1762
1209.00,1.1763
1208.00,1.1763
1207.00,1.1764
1206.00,1.1765
1205.00,1.1765
1204.00,1.1765
1203.00,1.1765
1202.00,1.1765
1201.00,1.1765
1200.00,1.1766
1199.00,1.1767
1198.00,1.1768
1197.00,1.1769
1196.00,1.1769
1195.00,1.1769
1194.00,1.1770
1193.00,1.1771
1192.00,1.1771
1191.00,1.1772
1190.00,1.1773
1189.00,1.1774
1188.00,1.1775
1187.00,1.1776
1186.00,1.1777
1185.00,1.1778
1184.00,1.1778
1183.00,1.1778
1182.00,1.1779
1181.00,1.1780
1180.00,1.1781
1179.00,1.1784
1178.00,1.1786
1177.00,1.1787
1176.00,1.1787
1175.00,1.1787
1174.00,1.1788
1173.00,1.1789
1172.00,1.1789
1171.00,1.1790
1170.00,1.1792
1169.00,1.1793
1168.00,1.1793
1167.00,1.1794
1166.00,1.1795
1165.00,1.1796
1164.00,1.1796
1163.00,1.1797
1162.00,1.1799
1161.00,1.1800
1160.00,1.1800
1159.00,1.1800
1158.00,1.1801
1157.00,1.1802
1156.00,1.1803
1155.00,1.1803
1154.00,1.1804
1153.00,1.1804
1152.00,1.1804
1151.00,1.1804
1150.00,1.1805
1149.00,1.1806
1148.00,1.1805
1147.00,1.1805
1146.00,1.1806
1145.00,1.1806
1144.00,1.1806
1143.00,1.1806
1142.00,1.1807
1141.00,1.1807
1140.00,1.1808
1139.00,1.1808
1138.00,1.1808
1137.00,1.1806
1136.00,1.1804
1135.00,1.1803
1134.00,1.1803
1133.00,1.1803
1132.00,1.1802
1131.00,1.1801
1130.00,1.1801
1129.00,1.1800
1128.00,1.1799
1127.00,1.1799
1126.00,1.1799
1125.00,1.1799
1124.00,1.1798
1123.00,1.1798
1122.00,1.1798
1121.00,1.1797
1120.00,1.1796
1119.00,1.1794
1118.00,1.1794
1117.00,1.1794
1116.00,1.1794
1115.00,1.1793
1114.00,1.1794
1113.00,1.1793
1112.00,1.1792
1111.00,1.1791
1110.00,1.1791
1109.00,1.1790
1108.00,1.1788
1107.00,1.1787
1106.00,1.1787
1105.00,1.1786
1104.00,1.1783
1103.00,1.1781
1102.00,1.1780
1101.00,1.1778
1100.00,1.1776
1099.00,1.1775
1098.00,1.1775
1097.00,1.1774
1096.00,1.1772
1095.00,1.1771
1094.00,1.1770
1093.00,1.1769
1092.00,1.1766
1091.00,1.1764
1090.00,1.1762
1089.00,1.1759
1088.00,1.1755
1087.00,1.1752
1086.00,1.1750
1085.00,1.1748
1084.00,1.1745
1083.00,1.1741
1082.00,1.1739
1081.00,1.1736
1080.00,1.1733
1079.00,1.1731
1078.00,1.1730
1077.00,1.1727
1076.00,1.1724
1075.00,1.1721
1074.00,1.1719
1073.00,1.1717
1072.00,1.1714
1071.00,1.1712
1070.00,1.1712
1069.00,1.1709
1068.00,1.1706
1067.00,1.1703
1066.00,1.1701
1065.00,1.1699
1064.00,1.1695
1063.00,1.1692
1062.00,1.1689
1061.00,1.1686
1060.00,1.1681
1059.00,1.1678
1058.00,1.1674
1057.00,1.1670
1056.00,1.1664
1055.00,1.1660
1054.00,1.1657
1053.00,1.1655
1052.00,1.1652
1051.00,1.1652
1050.00,1.1652
1049.00,1.1651
1048.00,1.1647
1047.00,1.1643
1046.00,1.1639
1045.00,1.1634
1044.00,1.1627
1043.00,1.1622
1042.00,1.1619
1041.00,1.1616
1040.00,1.1612
1039.00,1.1608
1038.00,1.1605
1037.00,1.1601
1036.00,1.1596
1035.00,1.1593
1034.00,1.1589
1033.00,1.1586
1032.00,1.1581
1031.00,1.1577
1030.00,1.1574
1029.00,1.1570
1028.00,1.1564
1027.00,1.1559
1026.00,1.1555
1025.00,1.1552
1024.00,1.1548
1023.00,1.1546
1022.00,1.1545
1021.00,1.1544
1020.00,1.1540
1019.00,1.1536
1018.00,1.1533
1017.00,1.1527
1016.00,1.1521
1015.00,1.1515
1014.00,1.1512
1013.00,1.1509
1012.00,1.1504
1011.00,1.1502
1010.00,1.1501
1009.00,1.1499
1008.00,1.1495
1007.00,1.1491
1006.00,1.1489
1005.00,1.1486
1004.00,1.1481
1003.00,1.1476
1002.00,1.1472
1001.00,1.1468
1000.00,1.1465
