Created as New Dataset,Sample 033 By Administrator Date Monday, February 10 2020
cm-1,A
6000.00,1.1555
5999.00,1.1554
5998.00,1.1553
5997.00,1.1552
5996.00,1.1553
5995.00,1.1553
5994.00,1.1553
5993.00,1.1552
5992.00,1.1551
5991.00,1.1550
5990.00,1.1548
5989.00,1.1547
5988.00,1.1547
5987.00,1.1547
5986.00,1.1547
5985.00,1.1548
5984.00,1.1549
5983.00,1.1550
5982.00,1.1550
5981.00,1.1550
5980.00,1.1550
5979.00,1.1549
5978.00,1.1549
5977.00,1.1548
5976.00,1.1547
5975.00,1.1547
5974.00,1.1548
5973.00,1.1550
5972.00,1.1551
5971.00,1.1551
5970.00,1.1552
5969.00,1.1551
5968.00,1.1551
5967.00,1.1550
5966.00,1.1548
5965.00,1.1547
5964.00,1.1545
5963.00,1.1544
5962.00,1.1543
5961.00,1.1543
5960.00,1.1543
5959.00,1.1543
5958.00,1.1543
5957.00,1.1542
5956.00,1.1542
5955.00,1.1542
5954.00,1.1541
5953.00,1.1541
5952.00,1.1543
5951.00,1.1544
5950.00,1.1545
5949.00,1.1544
5948.00,1.1544
5947.00,1.1544
5946.00,1.1544
5945.00,1.1544
5944.00,1.1543
5943.00,1.1543
5942.00,1.1543
5941.00,1.1543
5940.00,1.1543
5939.00,1.1543
5938.00,1.1543
5937.00,1.1543
5936.00,1.1543
5935.00,1.1544
5934.00,1.1545
5933.00,1.1545
5932.00,1.1544
5931.00,1.1544
5930.00,1.1543
5929.00,1.1543
5928.00,1.1543
5927.00,1.1543
5926.00,1.1544
5925.00,1.1544
5924.00,1.1543
5923.00,1.1542
5922.00,1.1540
5921.00,1.1538
5920.00,1.1538
5919.00,1.1538
5918.00,1.1539
5917.00,1.1541
5916.00,1.1542
5915.00,1.1544
5914.00,1.1544
5913.00,1.1544
5912.00,1.1544
5911.00,1.1543
5910.00,1.1542
5909.00,1.1541
5908.00,1.1541
5907.00,1.1541
5906.00,1.1540
5905.00,1.1540
5904.00,1.1541
5903.00,1.1542
5902.00,1.1542
5901.00,1.1541
5900.00,1.1541
5899.00,1.1541
5898.00,1.1541
5897.00,1.1541
5896.00,1.1540
5895.00,1.1540
5894.00,1.1540
5893.00,1.1539
5892.00,1.1539
5891.00,1.1539
5890.00,1.1539
5889.00,1.1539
5888.00,1.1539
5887.00,1.1539
5886.00,1.1537
5885.00,1.1536
5884.00,1.1535
5883.00,1.1535
5882.00,1.1535
5881.00,1.1536
5880.00,1.1536
5879.00,1.1537
5878.00,1.1537
5877.00,1.1536
5876.00,1.1534
5875.00,1.1534
5874.00,1.1533
5873.00,1.1534
5872.00,1.1534
5871.00,1.1535
5870.00,1.1535
5869.00,1.1534
5868.00,1.1533
5867.00,1.1532
5866.00,1.1531
5865.00,1.1531
5864.00,1.1532
5863.00,1.1534
5862.00,1.1535
5861.00,1.1535
5860.00,1.1535
5859.00,1.1534
5858.00,1.1534
5857.00,1.1532
5856.00,1.1531
5855.00,1.1530
5854.00,1.1529
5853.00,1.1528
5852.00,1.1528
5851.00,1.1529
5850.00,1.1530
5849.00,1.1531
5848.00,1.1532
5847.00,1.1532
5846.00,1.1531
5845.00,1.1531
5844.00,1.1531
5843.00,1.1532
5842.00,1.1532
5841.00,1.1533
5840.00,1.1533
5839.00,1.1533
5838.00,1.1532
5837.00,1.1531
5836.00,1.1529
5835.00,1.1529
5834.00,1.1530
5833.00,1.1530
5832.00,1.1531
5831.00,1.1532
5830.00,1.1532
5829.00,1.1533
5828.00,1.1533
5827.00,1.1534
5826.00,1.1535
5825.00,1.1535
5824.00,1.1535
5823.00,1.1536
5822.00,1.1536
5821.00,1.1536
5820.00,1.1536
5819.00,1.1536
5818.00,1.1535
5817.00,1.1534
5816.00,1.1534
5815.00,1.1533
5814.00,1.1532
5813.00,1.1532
5812.00,1.1532
5811.00,1.1533
5810.00,1.1534
5809.00,1.1534
5808.00,1.1535
5807.00,1.1536
5806.00,1.1537
5805.00,1.1536
5804.00,1.1535
5803.00,1.1535
5802.00,1.1534
5801.00,1.1533
5800.00,1.1533
5799.00,1.1533
5798.00,1.1533
5797.00,1.1533
5796.00,1.1533
5795.00,1.1533
5794.00,1.1533
5793.00,1.1533
5792.00,1.1533
5791.00,1.1533
5790.00,1.1533
5789.00,1.1533
5788.00,1.1533
5787.00,1.1533
5786.00,1.1533
5785.00,1.1534
5784.00,1.1534
5783.00,1.1534
5782.00,1.1534
5781.00,1.1533
5780.00,1.1534
5779.00,1.1534
5778.00,1.1534
5777.00,1.1533
5776.00,1.1533
5775.00,1.1533
5774.00,1.1533
5773.00,1.1533
5772.00,1.1533
5771.00,1.1533
5770.00,1.1533
5769.00,1.1532
5768.00,1.1531
5767.00,1.1529
5766.00,1.1528
5765.00,1.1527
5764.00,1.1527
5763.00,1.1527
5762.00,1.1527
5761.00,1.1527
5760.00,1.1527
5759.00,1.1527
5758.00,1.1527
5757.00,1.1527
5756.00,1.1527
5755.00,1.1527
5754.00,1.1526
5753.00,1.1526
5752.00,1.1526
5751.00,1.1527
5750.00,1.1528
5749.00,1.1528
5748.00,1.1528
5747.00,1.1529
5746.00,1.1529
5745.00,1.1528
5744.00,1.1529
5743.00,1.1529
5742.00,1.1529
5741.00,1.1529
5740.00,1.1529
5739.00,1.1529
5738.00,1.1528
5737.00,1.1527
5736.00,1.1526
5735.00,1.1525
5734.00,1.1525
5733.00,1.1525
5732.00,1.1526
5731.00,1.1528
5730.00,1.1529
5729.00,1.1530
5728.00,1.1529
5727.00,1.1528
5726.00,1.1527
5725.00,1.1526
5724.00,1.1525
5723.00,1.1526
5722.00,1.1526
5721.00,1.1527
5720.00,1.1528
5719.00,1.1528
5718.00,1.1528
5717.00,1.1527
5716.00,1.1526
5715.00,1.1525
5714.00,1.1524
5713.00,1.1523
5712.00,1.1524
5711.00,1.1525
5710.00,1.1526
5709.00,1.1526
5708.00,1.1527
5707.00,1.1527
5706.00,1.1528
5705.00,1.1528
5704.00,1.1528
5703.00,1.1528
5702.00,1.1528
5701.00,1.1528
5700.00,1.1527
5699.00,1.1527
5698.00,1.1526
5697.00,1.1526
5696.00,1.1525
5695.00,1.1525
5694.00,1.1524
5693.00,1.1523
5692.00,1.1523
5691.00,1.1523
5690.00,1.1524
5689.00,1.1524
5688.00,1.1524
5687.00,1.1525
5686.00,1.1526
5685.00,1.1526
5684.00,1.1526
5683.00,1.1526
5682.00,1.1525
5681.00,1.1524
5680.00,1.1523
5679.00,1.1523
5678.00,1.1523
5677.00,1.1523
5676.00,1.1523
5675.00,1.1523
5674.00,1.1524
5673.00,1.1525
5672.00,1.1525
5671.00,1.1526
5670.00,1.1527
5669.00,1.1527
5668.00,1.1526
5667.00,1.1526
5666.00,1.1526
5665.00,1.1525
5664.00,1.1525
5663.00,1.1524
5662.00,1.1524
5661.00,1.1523
5660.00,1.1523
5659.00,1.1523
5658.00,1.1523
5657.00,1.1522
5656.00,1.1522
5655.00,1.1522
5654.00,1.1521
5653.00,1.1521
5652.00,1.1521
5651.00,1.1522
5650.00,1.1523
5649.00,1.1524
5648.00,1.1524
5647.00,1.1524
5646.00,1.1524
5645.00,1.1523
5644.00,1.1523
5643.00,1.1522
5642.00,1.1522
5641.00,1.1522
5640.00,1.1521
5639.00,1.1521
5638.00,1.1520
5637.00,1.1520
5636.00,1.1520
5635.00,1.1521
5634.00,1.1521
5633.00,1.1522
5632.00,1.1523
5631.00,1.1524
5630.00,1.1524
5629.00,1.1524
5628.00,1.1524
5627.00,1.1524
5626.00,1.1523
5625.00,1.1522
5624.00,1.1522
5623.00,1.1522
5622.00,1.1523
5621.00,1.1523
5620.00,1.1523
5619.00,1.1523
5618.00,1.1523
5617.00,1.1522
5616.00,1.1521
5615.00,1.1520
5614.00,1.1520
5613.00,1.1520
5612.00,1.1520
5611.00,1.1521
5610.00,1.1522
5609.00,1.1523
5608.00,1.1524
5607.00,1.1525
5606.00,1.1525
5605.00,1.1525
5604.00,1.1525
5603.00,1.1524
5602.00,1.1524
5601.00,1.1523
5600.00,1.1522
5599.00,1.1522
5598.00,1.1522
5597.00,1.1522
5596.00,1.1522
5595.00,1.1523
5594.00,1.1523
5593.00,1.1523
5592.00,1.1522
5591.00,1.1521
5590.00,1.1520
5589.00,1.1518
5588.00,1.1517
5587.00,1.1517
5586.00,1.1517
5585.00,1.1518
5584.00,1.1520
5583.00,1.1521
5582.00,1.1522
5581.00,1.1522
5580.00,1.1521
5579.00,1.1520
5578.00,1.1520
5577.00,1.1520
5576.00,1.1520
5575.00,1.1520
5574.00,1.1520
5573.00,1.1520
5572.00,1.1520
5571.00,1.1519
5570.00,1.1517
5569.00,1.1516
5568.00,1.1515
5567.00,1.1515
5566.00,1.1515
5565.00,1.1516
5564.00,1.1517
5563.00,1.1518
5562.00,1.1519
5561.00,1.1519
5560.00,1.1518
5559.00,1.1518
5558.00,1.1518
5557.00,1.1517
5556.00,1.1517
5555.00,1.1517
5554.00,1.1516
5553.00,1.1516
5552.00,1.1516
5551.00,1.1516
5550.00,1.1516
5549.00,1.1516
5548.00,1.1517
5547.00,1.1518
5546.00,1.1518
5545.00,1.1517
5544.00,1.1517
5543.00,1.1516
5542.00,1.1516
5541.00,1.1516
5540.00,1.1516
5539.00,1.1516
5538.00,1.1516
5537.00,1.1516
5536.00,1.1516
5535.00,1.1517
5534.00,1.1517
5533.00,1.1518
5532.00,1.1518
5531.00,1.1519
5530.00,1.1519
5529.00,1.1519
5528.00,1.1518
5527.00,1.1518
5526.00,1.1518
5525.00,1.1518
5524.00,1.1518
5523.00,1.1518
5522.00,1.1518
5521.00,1.1518
5520.00,1.1518
5519.00,1.1518
5518.00,1.1517
5517.00,1.1516
5516.00,1.1515
5515.00,1.1515
5514.00,1.1514
5513.00,1.1513
5512.00,1.1513
5511.00,1.1514
5510.00,1.1514
5509.00,1.1514
5508.00,1.1515
5507.00,1.1515
5506.00,1.1515
5505.00,1.1514
5504.00,1.1513
5503.00,1.1513
5502.00,1.1513
5501.00,1.1513
5500.00,1.1513
5499.00,1.1513
5498.00,1.1513
5497.00,1.1513
5496.00,1.1513
5495.00,1.1513
5494.00,1.1512
5493.00,1.1510
5492.00,1.1509
5491.00,1.1509
5490.00,1.1509
5489.00,1.1509
5488.00,1.1510
5487.00,1.1511
5486.00,1.1512
5485.00,1.1513
5484.00,1.1513
5483.00,1.1513
5482.00,1.1512
5481.00,1.1511
5480.00,1.1511
5479.00,1.1511
5478.00,1.1511
5477.00,1.1510
5476.00,1.1509
5475.00,1.1509
5474.00,1.1509
5473.00,1.1509
5472.00,1.1510
5471.00,1.1510
5470.00,1.1510
5469.00,1.1510
5468.00,1.1509
5467.00,1.1509
5466.00,1.1508
5465.00,1.1508
5464.00,1.1508
5463.00,1.1508
5462.00,1.1508
5461.00,1.1508
5460.00,1.1509
5459.00,1.1510
5458.00,1.1510
5457.00,1.1509
5456.00,1.1508
5455.00,1.1507
5454.00,1.1507
5453.00,1.1507
5452.00,1.1507
5451.00,1.1507
5450.00,1.1507
5449.00,1.1508
5448.00,1.1509
5447.00,1.1508
5446.00,1.1507
5445.00,1.1507
5444.00,1.1507
5443.00,1.1507
5442.00,1.1506
5441.00,1.1505
5440.00,1.1505
5439.00,1.1507
5438.00,1.1508
5437.00,1.1508
5436.00,1.1508
5435.00,1.1508
5434.00,1.1509
5433.00,1.1511
5432.00,1.1512
5431.00,1.1512
5430.00,1.1511
5429.00,1.1510
5428.00,1.1509
5427.00,1.1509
5426.00,1.1509
5425.00,1.1508
5424.00,1.1509
5423.00,1.1509
5422.00,1.1510
5421.00,1.1510
5420.00,1.1510
5419.00,1.1509
5418.00,1.1509
5417.00,1.1508
5416.00,1.1508
5415.00,1.1508
5414.00,1.1509
5413.00,1.1509
5412.00,1.1510
5411.00,1.1509
5410.00,1.1507
5409.00,1.1506
5408.00,1.1506
5407.00,1.1507
5406.00,1.1509
5405.00,1.1509
5404.00,1.1510
5403.00,1.1511
5402.00,1.1510
5401.00,1.1509
5400.00,1.1509
5399.00,1.1508
5398.00,1.1507
5397.00,1.1506
5396.00,1.1506
5395.00,1.1505
5394.00,1.1505
5393.00,1.1505
5392.00,1.1505
5391.00,1.1506
5390.00,1.1506
5389.00,1.1505
5388.00,1.1505
5387.00,1.1504
5386.00,1.1504
5385.00,1.1504
5384.00,1.1505
5383.00,1.1505
5382.00,1.1506
5381.00,1.1506
5380.00,1.1507
5379.00,1.1507
5378.00,1.1507
5377.00,1.1507
5376.00,1.1507
5375.00,1.1507
5374.00,1.1507
5373.00,1.1506
5372.00,1.1506
5371.00,1.1506
5370.00,1.1506
5369.00,1.1505
5368.00,1.1506
5367.00,1.1506
5366.00,1.1507
5365.00,1.1506
5364.00,1.1506
5363.00,1.1507
5362.00,1.1507
5361.00,1.1507
5360.00,1.1507
5359.00,1.1507
5358.00,1.1507
5357.00,1.1507
5356.00,1.1506
5355.00,1.1506
5354.00,1.1505
5353.00,1.1505
5352.00,1.1505
5351.00,1.1506
5350.00,1.1505
5349.00,1.1504
5348.00,1.1505
5347.00,1.1506
5346.00,1.1507
5345.00,1.1506
5344.00,1.1505
5343.00,1.1506
5342.00,1.1507
5341.00,1.1507
5340.00,1.1506
5339.00,1.1506
5338.00,1.1506
5337.00,1.1507
5336.00,1.1507
5335.00,1.1508
5334.00,1.1508
5333.00,1.1508
5332.00,1.1508
5331.00,1.1509
5330.00,1.1510
5329.00,1.1509
5328.00,1.1509
5327.00,1.1509
5326.00,1.1509
5325.00,1.1510
5324.00,1.1510
5323.00,1.1511
5322.00,1.1511
5321.00,1.1512
5320.00,1.1512
5319.00,1.1512
5318.00,1.1512
5317.00,1.1512
5316.00,1.1511
5315.00,1.1511
5314.00,1.1511
5313.00,1.1511
5312.00,1.1511
5311.00,1.1512
5310.00,1.1512
5309.00,1.1512
5308.00,1.1512
5307.00,1.1512
5306.00,1.1511
5305.00,1.1511
5304.00,1.1510
5303.00,1.1511
5302.00,1.1511
5301.00,1.1511
5300.00,1.1512
5299.00,1.1513
5298.00,1.1514
5297.00,1.1514
5296.00,1.1514
5295.00,1.1515
5294.00,1.1514
5293.00,1.1514
5292.00,1.1513
5291.00,1.1513
5290.00,1.1513
5289.00,1.1514
5288.00,1.1516
5287.00,1.1517
5286.00,1.1517
5285.00,1.1516
5284.00,1.1516
5283.00,1.1517
5282.00,1.1517
5281.00,1.1518
5280.00,1.1519
5279.00,1.1519
5278.00,1.1519
5277.00,1.1519
5276.00,1.1519
5275.00,1.1519
5274.00,1.1519
5273.00,1.1519
5272.00,1.1520
5271.00,1.1520
5270.00,1.1519
5269.00,1.1519
5268.00,1.1519
5267.00,1.1519
5266.00,1.1519
5265.00,1.1519
5264.00,1.1519
5263.00,1.1519
5262.00,1.1520
5261.00,1.1520
5260.00,1.1520
5259.00,1.1521
5258.00,1.1521
5257.00,1.1521
5256.00,1.1521
5255.00,1.1520
5254.00,1.1521
5253.00,1.1522
5252.00,1.1524
5251.00,1.1525
5250.00,1.1526
5249.00,1.1525
5248.00,1.1525
5247.00,1.1525
5246.00,1.1526
5245.00,1.1526
5244.00,1.1527
5243.00,1.1529
5242.00,1.1530
5241.00,1.1531
5240.00,1.1532
5239.00,1.1532
5238.00,1.1532
5237.00,1.1533
5236.00,1.1533
5235.00,1.1534
5234.00,1.1534
5233.00,1.1534
5232.00,1.1534
5231.00,1.1534
5230.00,1.1535
5229.00,1.1535
5228.00,1.1536
5227.00,1.1536
5226.00,1.1537
5225.00,1.1537
5224.00,1.1538
5223.00,1.1539
5222.00,1.1539
5221.00,1.1539
5220.00,1.1540
5219.00,1.1541
5218.00,1.1542
5217.00,1.1543
5216.00,1.1544
5215.00,1.1544
5214.00,1.1544
5213.00,1.1544
5212.00,1.1543
5211.00,1.1543
5210.00,1.1543
5209.00,1.1543
5208.00,1.1544
5207.00,1.1544
5206.00,1.1545
5205.00,1.1547
5204.00,1.1548
5203.00,1.1550
5202.00,1.1551
5201.00,1.1552
5200.00,1.1552
5199.00,1.1552
5198.00,1.1551
5197.00,1.1550
5196.00,1.1550
5195.00,1.1550
5194.00,1.1551
5193.00,1.1553
5192.00,1.1554
5191.00,1.1555
5190.00,1.1556
5189.00,1.1556
5188.00,1.1557
5187.00,1.1557
5186.00,1.1557
5185.00,1.1558
5184.00,1.1559
5183.00,1.1561
5182.00,1.1562
5181.00,1.1563
5180.00,1.1563
5179.00,1.1564
5178.00,1.1565
5177.00,1.1565
5176.00,1.1565
5175.00,1.1566
5174.00,1.1566
5173.00,1.1566
5172.00,1.1567
5171.00,1.1568
5170.00,1.1569
5169.00,1.1569
5168.00,1.1570
5167.00,1.1570
5166.00,1.1570
5165.00,1.1570
5164.00,1.1570
5163.00,1.1571
5162.00,1.1572
5161.00,1.1573
5160.00,1.1574
5159.00,1.1574
5158.00,1.1575
5157.00,1.1575
5156.00,1.1575
5155.00,1.1575
5154.00,1.1576
5153.00,1.1577
5152.00,1.1577
5151.00,1.1579
5150.00,1.1580
5149.00,1.1581
5148.00,1.1582
5147.00,1.1583
5146.00,1.1583
5145.00,1.1583
5144.00,1.1583
5143.00,1.1584
5142.00,1.1584
5141.00,1.1584
5140.00,1.1585
5139.00,1.1586
5138.00,1.1586
5137.00,1.1586
5136.00,1.1586
5135.00,1.1587
5134.00,1.1587
5133.00,1.1588
5132.00,1.1588
5131.00,1.1589
5130.00,1.1590
5129.00,1.1590
5128.00,1.1590
5127.00,1.1590
5126.00,1.1591
5125.00,1.1591
5124.00,1.1591
5123.00,1.1591
5122.00,1.1592
5121.00,1.1592
5120.00,1.1592
5119.00,1.1592
5118.00,1.1592
5117.00,1.1591
5116.00,1.1591
5115.00,1.1592
5114.00,1.1592
5113.00,1.1593
5112.00,1.1593
5111.00,1.1594
5110.00,1.1594
5109.00,1.1594
5108.00,1.1594
5107.00,1.1594
5106.00,1.1594
5105.00,1.1594
5104.00,1.1594
5103.00,1.1595
5102.00,1.1595
5101.00,1.1595
5100.00,1.1595
5099.00,1.1595
5098.00,1.1595
5097.00,1.1595
5096.00,1.1595
5095.00,1.1596
5094.00,1.1596
5093.00,1.1596
5092.00,1.1596
5091.00,1.1596
5090.00,1.1597
5089.00,1.1598
5088.00,1.1599
5087.00,1.1599
5086.00,1.1599
5085.00,1.1599
5084.00,1.1598
5083.00,1.1598
5082.00,1.1598
5081.00,1.1598
5080.00,1.1598
5079.00,1.1598
5078.00,1.1598
5077.00,1.1598
5076.00,1.1598
5075.00,1.1598
5074.00,1.1598
5073.00,1.1598
5072.00,1.1598
5071.00,1.1598
5070.00,1.1598
5069.00,1.1599
5068.00,1.1599
5067.00,1.1600
5066.00,1.1600
5065.00,1.1599
5064.00,1.1599
5063.00,1.1599
5062.00,1.1600
5061.00,1.1600
5060.00,1.1600
5059.00,1.1601
5058.00,1.1601
5057.00,1.1601
5056.00,1.1601
5055.00,1.1601
5054.00,1.1601
5053.00,1.1601
5052.00,1.1602
5051.00,1.1602
5050.00,1.1602
5049.00,1.1602
5048.00,1.1602
5047.00,1.1603
5046.00,1.1603
5045.00,1.1604
5044.00,1.1604
5043.00,1.1605
5042.00,1.1605
5041.00,1.1605
5040.00,1.1604
5039.00,1.1603
5038.00,1.1603
5037.00,1.1602
5036.00,1.1602
5035.00,1.1601
5034.00,1.1602
5033.00,1.1601
5032.00,1.1602
5031.00,1.1602
5030.00,1.1602
5029.00,1.1602
5028.00,1.1602
5027.00,1.1603
5026.00,1.1603
5025.00,1.1603
5024.00,1.1602
5023.00,1.1601
5022.00,1.1601
5021.00,1.1600
5020.00,1.1601
5019.00,1.1601
5018.00,1.1601
5017.00,1.1601
5016.00,1.1601
5015.00,1.1601
5014.00,1.1601
5013.00,1.1601
5012.00,1.1601
5011.00,1.1601
5010.00,1.1601
5009.00,1.1601
5008.00,1.1601
5007.00,1.1601
5006.00,1.1601
5005.00,1.1601
5004.00,1.1600
5003.00,1.1600
5002.00,1.1600
5001.00,1.1600
5000.00,1.1600
4999.00,1.1600
4998.00,1.1599
4997.00,1.1599
4996.00,1.1599
4995.00,1.1600
4994.00,1.1600
4993.00,1.1600
4992.00,1.1600
4991.00,1.1600
4990.00,1.1599
4989.00,1.1599
4988.00,1.1599
4987.00,1.1598
4986.00,1.1598
4985.00,1.1598
4984.00,1.1598
4983.00,1.1598
4982.00,1.1598
4981.00,1.1598
4980.00,1.1598
4979.00,1.1598
4978.00,1.1598
4977.00,1.1597
4976.00,1.1597
4975.00,1.1597
4974.00,1.1597
4973.00,1.1597
4972.00,1.1598
4971.00,1.1599
4970.00,1.1599
4969.00,1.1599
4968.00,1.1599
4967.00,1.1599
4966.00,1.1598
4965.00,1.1598
4964.00,1.1598
4963.00,1.1598
4962.00,1.1598
4961.00,1.1598
4960.00,1.1598
4959.00,1.1597
4958.00,1.1597
4957.00,1.1597
4956.00,1.1596
4955.00,1.1597
4954.00,1.1597
4953.00,1.1596
4952.00,1.1596
4951.00,1.1596
4950.00,1.1595
4949.00,1.1595
4948.00,1.1596
4947.00,1.1596
4946.00,1.1597
4945.00,1.1597
4944.00,1.1597
4943.00,1.1597
4942.00,1.1597
4941.00,1.1596
4940.00,1.1596
4939.00,1.1595
4938.00,1.1594
4937.00,1.1593
4936.00,1.1593
4935.00,1.1593
4934.00,1.1593
4933.00,1.1593
4932.00,1.1593
4931.00,1.1594
4930.00,1.1593
4929.00,1.1593
4928.00,1.1593
4927.00,1.1592
4926.00,1.1592
4925.00,1.1591
4924.00,1.1590
4923.00,1.1590
4922.00,1.1590
4921.00,1.1590
4920.00,1.1590
4919.00,1.1591
4918.00,1.1591
4917.00,1.1591
4916.00,1.1591
4915.00,1.1591
4914.00,1.1591
4913.00,1.1590
4912.00,1.1590
4911.00,1.1590
4910.00,1.1590
4909.00,1.1589
4908.00,1.1589
4907.00,1.1589
4906.00,1.1589
4905.00,1.1589
4904.00,1.1588
4903.00,1.1588
4902.00,1.1588
4901.00,1.1587
4900.00,1.1587
4899.00,1.1587
4898.00,1.1587
4897.00,1.1587
4896.00,1.1587
4895.00,1.1586
4894.00,1.1585
4893.00,1.1585
4892.00,1.1584
4891.00,1.1584
4890.00,1.1585
4889.00,1.1585
4888.00,1.1585
4887.00,1.1586
4886.00,1.1586
4885.00,1.1585
4884.00,1.1585
4883.00,1.1584
4882.00,1.1584
4881.00,1.1584
4880.00,1.1584
4879.00,1.1584
4878.00,1.1583
4877.00,1.1583
4876.00,1.1582
4875.00,1.1582
4874.00,1.1582
4873.00,1.1582
4872.00,1.1582
4871.00,1.1582
4870.00,1.1582
4869.00,1.1582
4868.00,1.1581
4867.00,1.1581
4866.00,1.1580
4865.00,1.1580
4864.00,1.1579
4863.00,1.1579
4862.00,1.1579
4861.00,1.1579
4860.00,1.1579
4859.00,1.1579
4858.00,1.1579
4857.00,1.1579
4856.00,1.1579
4855.00,1.1579
4854.00,1.1578
4853.00,1.1577
4852.00,1.1577
4851.00,1.1577
4850.00,1.1577
4849.00,1.1577
4848.00,1.1577
4847.00,1.1577
4846.00,1.1576
4845.00,1.1576
4844.00,1.1575
4843.00,1.1574
4842.00,1.1574
4841.00,1.1575
4840.00,1.1574
4839.00,1.1574
4838.00,1.1574
4837.00,1.1573
4836.00,1.1572
4835.00,1.1572
4834.00,1.1572
4833.00,1.1572
4832.00,1.1572
4831.00,1.1572
4830.00,1.1571
4829.00,1.1571
4828.00,1.1570
4827.00,1.1570
4826.00,1.1570
4825.00,1.1569
4824.00,1.1569
4823.00,1.1569
4822.00,1.1569
4821.00,1.1569
4820.00,1.1569
4819.00,1.1569
4818.00,1.1569
4817.00,1.1568
4816.00,1.1567
4815.00,1.1567
4814.00,1.1566
4813.00,1.1566
4812.00,1.1566
4811.00,1.1565
4810.00,1.1565
4809.00,1.1565
4808.00,1.1564
4807.00,1.1564
4806.00,1.1563
4805.00,1.1563
4804.00,1.1562
4803.00,1.1562
4802.00,1.1561
4801.00,1.1561
4800.00,1.1561
4799.00,1.1560
4798.00,1.1560
4797.00,1.1560
4796.00,1.1560
4795.00,1.1560
4794.00,1.1560
4793.00,1.1560
4792.00,1.1559
4791.00,1.1559
4790.00,1.1559
4789.00,1.1558
4788.00,1.1558
4787.00,1.1557
4786.00,1.1556
4785.00,1.1555
4784.00,1.1555
4783.00,1.1554
4782.00,1.1554
4781.00,1.1554
4780.00,1.1554
4779.00,1.1554
4778.00,1.1554
4777.00,1.1553
4776.00,1.1553
4775.00,1.1553
4774.00,1.1552
4773.00,1.1552
4772.00,1.1551
4771.00,1.1550
4770.00,1.1550
4769.00,1.1549
4768.00,1.1549
4767.00,1.1550
4766.00,1.1550
4765.00,1.1550
4764.00,1.1550
4763.00,1.1550
4762.00,1.1549
4761.00,1.1549
4760.00,1.1548
4759.00,1.1547
4758.00,1.1546
4757.00,1.1544
4756.00,1.1543
4755.00,1.1542
4754.00,1.1541
4753.00,1.1540
4752.00,1.1539
4751.00,1.1538
4750.00,1.1537
4749.00,1.1537
4748.00,1.1536
4747.00,1.1536
4746.00,1.1535
4745.00,1.1535
4744.00,1.1534
4743.00,1.1533
4742.00,1.1532
4741.00,1.1531
4740.00,1.1530
4739.00,1.1530
4738.00,1.1529
4737.00,1.1529
4736.00,1.1528
4735.00,1.1528
4734.00,1.1528
4733.00,1.1528
4732.00,1.1527
4731.00,1.1527
4730.00,1.1526
4729.00,1.1525
4728.00,1.1524
4727.00,1.1523
4726.00,1.1522
4725.00,1.1521
4724.00,1.1520
4723.00,1.1521
4722.00,1.1521
4721.00,1.1521
4720.00,1.1520
4719.00,1.1520
4718.00,1.1520
4717.00,1.1520
4716.00,1.1520
4715.00,1.1520
4714.00,1.1520
4713.00,1.1520
4712.00,1.1519
4711.00,1.1519
4710.00,1.1519
4709.00,1.1519
4708.00,1.1519
4707.00,1.1519
4706.00,1.1520
4705.00,1.1520
4704.00,1.1520
4703.00,1.1520
4702.00,1.1521
4701.00,1.1522
4700.00,1.1523
4699.00,1.1523
4698.00,1.1523
4697.00,1.1523
4696.00,1.1522
4695.00,1.1520
4694.00,1.1519
4693.00,1.1518
4692.00,1.1517
4691.00,1.1516
4690.00,1.1516
4689.00,1.1516
4688.00,1.1516
4687.00,1.1515
4686.00,1.1515
4685.00,1.1514
4684.00,1.1513
4683.00,1.1512
4682.00,1.1512
4681.00,1.1511
4680.00,1.1511
4679.00,1.1511
4678.00,1.1511
4677.00,1.1511
4676.00,1.1512
4675.00,1.1512
4674.00,1.1512
4673.00,1.1512
4672.00,1.1513
4671.00,1.1513
4670.00,1.1513
4669.00,1.1513
4668.00,1.1513
4667.00,1.1512
4666.00,1.1512
4665.00,1.1512
4664.00,1.1512
4663.00,1.1512
4662.00,1.1511
4661.00,1.1511
4660.00,1.1510
4659.00,1.1510
4658.00,1.1510
4657.00,1.1510
4656.00,1.1510
4655.00,1.1510
4654.00,1.1510
4653.00,1.1510
4652.00,1.1510
4651.00,1.1510
4650.00,1.1510
4649.00,1.1510
4648.00,1.1510
4647.00,1.1509
4646.00,1.1509
4645.00,1.1509
4644.00,1.1509
4643.00,1.1509
4642.00,1.1508
4641.00,1.1508
4640.00,1.1508
4639.00,1.1508
4638.00,1.1509
4637.00,1.1509
4636.00,1.1509
4635.00,1.1510
4634.00,1.1510
4633.00,1.1509
4632.00,1.1509
4631.00,1.1508
4630.00,1.1508
4629.00,1.1508
4628.00,1.1508
4627.00,1.1508
4626.00,1.1508
4625.00,1.1508
4624.00,1.1508
4623.00,1.1508
4622.00,1.1508
4621.00,1.1508
4620.00,1.1508
4619.00,1.1508
4618.00,1.1509
4617.00,1.1509
4616.00,1.1510
4615.00,1.1510
4614.00,1.1510
4613.00,1.1509
4612.00,1.1509
4611.00,1.1508
4610.00,1.1508
4609.00,1.1508
4608.00,1.1508
4607.00,1.1508
4606.00,1.1508
4605.00,1.1508
4604.00,1.1508
4603.00,1.1508
4602.00,1.1508
4601.00,1.1507
4600.00,1.1507
4599.00,1.1507
4598.00,1.1506
4597.00,1.1506
4596.00,1.1506
4595.00,1.1506
4594.00,1.1507
4593.00,1.1506
4592.00,1.1506
4591.00,1.1506
4590.00,1.1506
4589.00,1.1506
4588.00,1.1506
4587.00,1.1506
4586.00,1.1506
4585.00,1.1506
4584.00,1.1506
4583.00,1.1506
4582.00,1.1506
4581.00,1.1506
4580.00,1.1506
4579.00,1.1505
4578.00,1.1505
4577.00,1.1505
4576.00,1.1505
4575.00,1.1505
4574.00,1.1505
4573.00,1.1505
4572.00,1.1506
4571.00,1.1506
4570.00,1.1507
4569.00,1.1507
4568.00,1.1507
4567.00,1.1508
4566.00,1.1508
4565.00,1.1507
4564.00,1.1507
4563.00,1.1506
4562.00,1.1506
4561.00,1.1505
4560.00,1.1505
4559.00,1.1505
4558.00,1.1506
4557.00,1.1506
4556.00,1.1506
4555.00,1.1506
4554.00,1.1505
4553.00,1.1505
4552.00,1.1505
4551.00,1.1505
4550.00,1.1504
4549.00,1.1504
4548.00,1.1504
4547.00,1.1504
4546.00,1.1504
4545.00,1.1504
4544.00,1.1504
4543.00,1.1504
4542.00,1.1504
4541.00,1.1503
4540.00,1.1503
4539.00,1.1503
4538.00,1.1503
4537.00,1.1503
4536.00,1.1503
4535.00,1.1503
4534.00,1.1503
4533.00,1.1502
4532.00,1.1502
4531.00,1.1502
4530.00,1.1502
4529.00,1.1502
4528.00,1.1502
4527.00,1.1502
4526.00,1.1502
4525.00,1.1502
4524.00,1.1502
4523.00,1.1501
4522.00,1.1501
4521.00,1.1501
4520.00,1.1501
4519.00,1.1500
4518.00,1.1500
4517.00,1.1500
4516.00,1.1499
4515.00,1.1499
4514.00,1.1499
4513.00,1.1499
4512.00,1.1498
4511.00,1.1498
4510.00,1.1498
4509.00,1.1498
4508.00,1.1498
4507.00,1.1498
4506.00,1.1498
4505.00,1.1498
4504.00,1.1498
4503.00,1.1498
4502.00,1.1498
4501.00,1.1499
4500.00,1.1499
4499.00,1.1499
4498.00,1.1499
4497.00,1.1498
4496.00,1.1498
4495.00,1.1498
4494.00,1.1498
4493.00,1.1497
4492.00,1.1497
4491.00,1.1498
4490.00,1.1498
4489.00,1.1498
4488.00,1.1498
4487.00,1.1498
4486.00,1.1498
4485.00,1.1498
4484.00,1.1498
4483.00,1.1498
4482.00,1.1497
4481.00,1.1497
4480.00,1.1497
4479.00,1.1497
4478.00,1.1497
4477.00,1.1498
4476.00,1.1498
4475.00,1.1498
4474.00,1.1498
4473.00,1.1498
4472.00,1.1498
4471.00,1.1497
4470.00,1.1497
4469.00,1.1497
4468.00,1.1497
4467.00,1.1497
4466.00,1.1497
4465.00,1.1497
4464.00,1.1497
4463.00,1.1497
4462.00,1.1497
4461.00,1.1497
4460.00,1.1497
4459.00,1.1497
4458.00,1.1497
4457.00,1.1497
4456.00,1.1497
4455.00,1.1497
4454.00,1.1497
4453.00,1.1497
4452.00,1.1497
4451.00,1.1498
4450.00,1.1498
4449.00,1.1498
4448.00,1.1498
4447.00,1.1497
4446.00,1.1497
4445.00,1.1496
4444.00,1.1496
4443.00,1.1496
4442.00,1.1496
4441.00,1.1496
4440.00,1.1496
4439.00,1.1497
4438.00,1.1497
4437.00,1.1497
4436.00,1.1496
4435.00,1.1496
4434.00,1.1496
4433.00,1.1496
4432.00,1.1496
4431.00,1.1496
4430.00,1.1496
4429.00,1.1496
4428.00,1.1495
4427.00,1.1495
4426.00,1.1495
4425.00,1.1495
4424.00,1.1495
4423.00,1.1495
4422.00,1.1496
4421.00,1.1496
4420.00,1.1496
4419.00,1.1496
4418.00,1.1496
4417.00,1.1496
4416.00,1.1495
4415.00,1.1496
4414.00,1.1496
4413.00,1.1496
4412.00,1.1496
4411.00,1.1495
4410.00,1.1495
4409.00,1.1495
4408.00,1.1495
4407.00,1.1496
4406.00,1.1496
4405.00,1.1496
4404.00,1.1495
4403.00,1.1495
4402.00,1.1495
4401.00,1.1495
4400.00,1.1495
4399.00,1.1495
4398.00,1.1495
4397.00,1.1495
4396.00,1.1495
4395.00,1.1495
4394.00,1.1495
4393.00,1.1495
4392.00,1.1495
4391.00,1.1495
4390.00,1.1495
4389.00,1.1495
4388.00,1.1495
4387.00,1.1495
4386.00,1.1496
4385.00,1.1496
4384.00,1.1497
4383.00,1.1497
4382.00,1.1497
4381.00,1.1496
4380.00,1.1496
4379.00,1.1496
4378.00,1.1497
4377.00,1.1497
4376.00,1.1497
4375.00,1.1497
4374.00,1.1497
4373.00,1.1498
4372.00,1.1498
4371.00,1.1498
4370.00,1.1498
4369.00,1.1498
4368.00,1.1498
4367.00,1.1498
4366.00,1.1498
4365.00,1.1499
4364.00,1.1499
4363.00,1.1499
4362.00,1.1499
4361.00,1.1499
4360.00,1.1499
4359.00,1.1499
4358.00,1.1499
4357.00,1.1499
4356.00,1.1500
4355.00,1.1500
4354.00,1.1500
4353.00,1.1500
4352.00,1.1500
4351.00,1.1500
4350.00,1.1500
4349.00,1.1500
4348.00,1.1500
4347.00,1.1500
4346.00,1.1500
4345.00,1.1500
4344.00,1.1501
4343.00,1.1501
4342.00,1.1501
4341.00,1.1501
4340.00,1.1500
4339.00,1.1501
4338.00,1.1501
4337.00,1.1501
4336.00,1.1501
4335.00,1.1501
4334.00,1.1501
4333.00,1.1500
4332.00,1.1500
4331.00,1.1500
4330.00,1.1500
4329.00,1.1501
4328.00,1.1501
4327.00,1.1502
4326.00,1.1502
4325.00,1.1501
4324.00,1.1501
4323.00,1.1501
4322.00,1.1501
4321.00,1.1501
4320.00,1.1501
4319.00,1.1501
4318.00,1.1502
4317.00,1.1502
4316.00,1.1502
4315.00,1.1502
4314.00,1.1502
4313.00,1.1502
4312.00,1.1502
4311.00,1.1502
4310.00,1.1502
4309.00,1.1502
4308.00,1.1502
4307.00,1.1502
4306.00,1.1502
4305.00,1.1502
4304.00,1.1503
4303.00,1.1503
4302.00,1.1504
4301.00,1.1504
4300.00,1.1504
4299.00,1.1504
4298.00,1.1504
4297.00,1.1503
4296.00,1.1503
4295.00,1.1504
4294.00,1.1504
4293.00,1.1505
4292.00,1.1504
4291.00,1.1504
4290.00,1.1504
4289.00,1.1504
4288.00,1.1505
4287.00,1.1505
4286.00,1.1505
4285.00,1.1506
4284.00,1.1506
4283.00,1.1506
4282.00,1.1507
4281.00,1.1507
4280.00,1.1507
4279.00,1.1507
4278.00,1.1507
4277.00,1.1507
4276.00,1.1507
4275.00,1.1507
4274.00,1.1508
4273.00,1.1508
4272.00,1.1508
4271.00,1.1508
4270.00,1.1508
4269.00,1.1508
4268.00,1.1507
4267.00,1.1507
4266.00,1.1508
4265.00,1.1508
4264.00,1.1508
4263.00,1.1509
4262.00,1.1509
4261.00,1.1508
4260.00,1.1508
4259.00,1.1508
4258.00,1.1508
4257.00,1.1508
4256.00,1.1508
4255.00,1.1508
4254.00,1.1508
4253.00,1.1508
4252.00,1.1508
4251.00,1.1508
4250.00,1.1508
4249.00,1.1508
4248.00,1.1509
4247.00,1.1509
4246.00,1.1509
4245.00,1.1509
4244.00,1.1509
4243.00,1.1509
4242.00,1.1509
4241.00,1.1509
4240.00,1.1509
4239.00,1.1509
4238.00,1.1509
4237.00,1.1509
4236.00,1.1509
4235.00,1.1509
4234.00,1.1509
4233.00,1.1509
4232.00,1.1509
4231.00,1.1509
4230.00,1.1509
4229.00,1.1508
4228.00,1.1509
4227.00,1.1509
4226.00,1.1509
4225.00,1.1509
4224.00,1.1509
4223.00,1.1509
4222.00,1.1509
4221.00,1.1509
4220.00,1.1508
4219.00,1.1508
4218.00,1.1508
4217.00,1.1508
4216.00,1.1508
4215.00,1.1508
4214.00,1.1508
4213.00,1.1508
4212.00,1.1507
4211.00,1.1507
4210.00,1.1507
4209.00,1.1507
4208.00,1.1507
4207.00,1.1507
4206.00,1.1507
4205.00,1.1508
4204.00,1.1508
4203.00,1.1509
4202.00,1.1509
4201.00,1.1509
4200.00,1.1508
4199.00,1.1508
4198.00,1.1508
4197.00,1.1508
4196.00,1.1508
4195.00,1.1508
4194.00,1.1508
4193.00,1.1507
4192.00,1.1507
4191.00,1.1507
4190.00,1.1507
4189.00,1.1507
4188.00,1.1507
4187.00,1.1508
4186.00,1.1508
4185.00,1.1508
4184.00,1.1509
4183.00,1.1509
4182.00,1.1509
4181.00,1.1509
4180.00,1.1509
4179.00,1.1509
4178.00,1.1509
4177.00,1.1509
4176.00,1.1509
4175.00,1.1509
4174.00,1.1509
4173.00,1.1508
4172.00,1.1508
4171.00,1.1508
4170.00,1.1508
4169.00,1.1508
4168.00,1.1508
4167.00,1.1508
4166.00,1.1508
4165.00,1.1508
4164.00,1.1507
4163.00,1.1507
4162.00,1.1507
4161.00,1.1507
4160.00,1.1507
4159.00,1.1507
4158.00,1.1507
4157.00,1.1507
4156.00,1.1507
4155.00,1.1507
4154.00,1.1507
4153.00,1.1507
4152.00,1.1506
4151.00,1.1506
4150.00,1.1506
4149.00,1.1506
4148.00,1.1506
4147.00,1.1506
4146.00,1.1506
4145.00,1.1506
4144.00,1.1505
4143.00,1.1505
4142.00,1.1505
4141.00,1.1505
4140.00,1.1505
4139.00,1.1505
4138.00,1.1505
4137.00,1.1505
4136.00,1.1505
4135.00,1.1505
4134.00,1.1504
4133.00,1.1504
4132.00,1.1503
4131.00,1.1503
4130.00,1.1503
4129.00,1.1503
4128.00,1.1503
4127.00,1.1503
4126.00,1.1503
4125.00,1.1502
4124.00,1.1502
4123.00,1.1502
4122.00,1.1502
4121.00,1.1503
4120.00,1.1503
4119.00,1.1503
4118.00,1.1503
4117.00,1.1503
4116.00,1.1502
4115.00,1.1502
4114.00,1.1502
4113.00,1.1501
4112.00,1.1501
4111.00,1.1501
4110.00,1.1501
4109.00,1.1501
4108.00,1.1501
4107.00,1.1500
4106.00,1.1500
4105.00,1.1500
4104.00,1.1500
4103.00,1.1499
4102.00,1.1499
4101.00,1.1499
4100.00,1.1499
4099.00,1.1500
4098.00,1.1500
4097.00,1.1500
4096.00,1.1500
4095.00,1.1499
4094.00,1.1499
4093.00,1.1499
4092.00,1.1499
4091.00,1.1499
4090.00,1.1499
4089.00,1.1499
4088.00,1.1499
4087.00,1.1499
4086.00,1.1499
4085.00,1.1499
4084.00,1.1499
4083.00,1.1499
4082.00,1.1499
4081.00,1.1498
4080.00,1.1498
4079.00,1.1498
4078.00,1.1498
4077.00,1.1498
4076.00,1.1498
4075.00,1.1498
4074.00,1.1498
4073.00,1.1498
4072.00,1.1498
4071.00,1.1498
4070.00,1.1498
4069.00,1.1498
4068.00,1.1498
4067.00,1.1497
4066.00,1.1497
4065.00,1.1497
4064.00,1.1497
4063.00,1.1497
4062.00,1.1497
4061.00,1.1496
4060.00,1.1496
4059.00,1.1496
4058.00,1.1497
4057.00,1.1497
4056.00,1.1496
4055.00,1.1496
4054.00,1.1496
4053.00,1.1495
4052.00,1.1495
4051.00,1.1494
4050.00,1.1494
4049.00,1.1494
4048.00,1.1494
4047.00,1.1494
4046.00,1.1494
4045.00,1.1493
4044.00,1.1493
4043.00,1.1493
4042.00,1.1492
4041.00,1.1492
4040.00,1.1492
4039.00,1.1492
4038.00,1.1492
4037.00,1.1491
4036.00,1.1491
4035.00,1.1491
4034.00,1.1491
4033.00,1.1491
4032.00,1.1491
4031.00,1.1490
4030.00,1.1490
4029.00,1.1490
4028.00,1.1490
4027.00,1.1490
4026.00,1.1490
4025.00,1.1490
4024.00,1.1489
4023.00,1.1489
4022.00,1.1489
4021.00,1.1489
4020.00,1.1489
4019.00,1.1489
4018.00,1.1488
4017.00,1.1488
4016.00,1.1488
4015.00,1.1487
4014.00,1.1487
4013.00,1.1487
4012.00,1.1487
4011.00,1.1487
4010.00,1.1487
4009.00,1.1487
4008.00,1.1487
4007.00,1.1486
4006.00,1.1486
4005.00,1.1485
4004.00,1.1484
4003.00,1.1485
4002.00,1.1485
4001.00,1.1485
4000.00,1.1485
3999.00,1.1485
3998.00,1.1485
3997.00,1.1484
3996.00,1.1484
3995.00,1.1484
3994.00,1.1484
3993.00,1.1484
3992.00,1.1483
3991.00,1.1483
3990.00,1.1483
3989.00,1.1482
3988.00,1.1482
3987.00,1.1482
3986.00,1.1481
3985.00,1.1481
3984.00,1.1480
3983.00,1.1480
3982.00,1.1480
3981.00,1.1479
3980.00,1.1479
3979.00,1.1479
3978.00,1.1479
3977.00,1.1478
3976.00,1.1478
3975.00,1.1478
3974.00,1.1478
3973.00,1.1478
3972.00,1.1477
3971.00,1.1477
3970.00,1.1476
3969.00,1.1476
3968.00,1.1475
3967.00,1.1475
3966.00,1.1474
3965.00,1.1473
3964.00,1.1473
3963.00,1.1472
3962.00,1.1471
3961.00,1.1471
3960.00,1.1471
3959.00,1.1471
3958.00,1.1471
3957.00,1.1470
3956.00,1.1469
3955.00,1.1469
3954.00,1.1469
3953.00,1.1469
3952.00,1.1469
3951.00,1.1469
3950.00,1.1467
3949.00,1.1466
3948.00,1.1465
3947.00,1.1464
3946.00,1.1465
3945.00,1.1464
3944.00,1.1464
3943.00,1.1463
3942.00,1.1463
3941.00,1.1462
3940.00,1.1462
3939.00,1.1461
3938.00,1.1460
3937.00,1.1459
3936.00,1.1458
3935.00,1.1458
3934.00,1.1457
3933.00,1.1457
3932.00,1.1456
3931.00,1.1456
3930.00,1.1455
3929.00,1.1455
3928.00,1.1455
3927.00,1.1454
3926.00,1.1453
3925.00,1.1452
3924.00,1.1451
3923.00,1.1451
3922.00,1.1449
3921.00,1.1448
3920.00,1.1447
3919.00,1.1447
3918.00,1.1446
3917.00,1.1444
3916.00,1.1444
3915.00,1.1443
3914.00,1.1443
3913.00,1.1442
3912.00,1.1442
3911.00,1.1442
3910.00,1.1442
3909.00,1.1442
3908.00,1.1442
3907.00,1.1442
3906.00,1.1441
3905.00,1.1440
3904.00,1.1438
3903.00,1.1436
3902.00,1.1434
3901.00,1.1431
3900.00,1.1429
3899.00,1.1429
3898.00,1.1430
3897.00,1.1430
3896.00,1.1431
3895.00,1.1431
3894.00,1.1431
3893.00,1.1431
3892.00,1.1430
3891.00,1.1429
3890.00,1.1428
3889.00,1.1426
3888.00,1.1424
3887.00,1.1421
3886.00,1.1421
3885.00,1.1422
3884.00,1.1424
3883.00,1.1425
3882.00,1.1424
3881.00,1.1422
3880.00,1.1422
3879.00,1.1422
3878.00,1.1422
3877.00,1.1422
3876.00,1.1420
3875.00,1.1419
3874.00,1.1418
3873.00,1.1418
3872.00,1.1417
3871.00,1.1414
3870.00,1.1412
3869.00,1.1412
3868.00,1.1414
3867.00,1.1413
3866.00,1.1412
3865.00,1.1412
3864.00,1.1412
3863.00,1.1411
3862.00,1.1409
3861.00,1.1407
3860.00,1.1406
3859.00,1.1404
3858.00,1.1403
3857.00,1.1403
3856.00,1.1404
3855.00,1.1404
3854.00,1.1401
3853.00,1.1399
3852.00,1.1398
3851.00,1.1397
3850.00,1.1397
3849.00,1.1397
3848.00,1.1397
3847.00,1.1397
3846.00,1.1397
3845.00,1.1397
3844.00,1.1397
3843.00,1.1396
3842.00,1.1396
3841.00,1.1394
3840.00,1.1393
3839.00,1.1393
3838.00,1.1393
3837.00,1.1393
3836.00,1.1392
3835.00,1.1391
3834.00,1.1390
3833.00,1.1389
3832.00,1.1388
3831.00,1.1388
3830.00,1.1388
3829.00,1.1388
3828.00,1.1387
3827.00,1.1386
3826.00,1.1386
3825.00,1.1386
3824.00,1.1386
3823.00,1.1384
3822.00,1.1381
3821.00,1.1380
3820.00,1.1380
3819.00,1.1380
3818.00,1.1378
3817.00,1.1375
3816.00,1.1375
3815.00,1.1377
3814.00,1.1378
3813.00,1.1377
3812.00,1.1376
3811.00,1.1376
3810.00,1.1376
3809.00,1.1375
3808.00,1.1374
3807.00,1.1372
3806.00,1.1372
3805.00,1.1372
3804.00,1.1371
3803.00,1.1369
3802.00,1.1370
3801.00,1.1373
3800.00,1.1375
3799.00,1.1374
3798.00,1.1372
3797.00,1.1370
3796.00,1.1370
3795.00,1.1370
3794.00,1.1370
3793.00,1.1369
3792.00,1.1369
3791.00,1.1369
3790.00,1.1369
3789.00,1.1369
3788.00,1.1369
3787.00,1.1368
3786.00,1.1367
3785.00,1.1366
3784.00,1.1366
3783.00,1.1366
3782.00,1.1365
3781.00,1.1364
3780.00,1.1362
3779.00,1.1362
3778.00,1.1362
3777.00,1.1362
3776.00,1.1361
3775.00,1.1360
3774.00,1.1360
3773.00,1.1360
3772.00,1.1359
3771.00,1.1357
3770.00,1.1357
3769.00,1.1357
3768.00,1.1357
3767.00,1.1355
3766.00,1.1354
3765.00,1.1353
3764.00,1.1354
3763.00,1.1354
3762.00,1.1353
3761.00,1.1352
3760.00,1.1352
3759.00,1.1352
3758.00,1.1351
3757.00,1.1349
3756.00,1.1347
3755.00,1.1345
3754.00,1.1343
3753.00,1.1341
3752.00,1.1339
3751.00,1.1337
3750.00,1.1335
3749.00,1.1334
3748.00,1.1334
3747.00,1.1333
3746.00,1.1333
3745.00,1.1332
3744.00,1.1335
3743.00,1.1338
3742.00,1.1337
3741.00,1.1335
3740.00,1.1333
3739.00,1.1333
3738.00,1.1333
3737.00,1.1334
3736.00,1.1334
3735.00,1.1335
3734.00,1.1335
3733.00,1.1334
3732.00,1.1334
3731.00,1.1335
3730.00,1.1336
3729.00,1.1337
3728.00,1.1337
3727.00,1.1338
3726.00,1.1339
3725.00,1.1340
3724.00,1.1340
3723.00,1.1339
3722.00,1.1339
3721.00,1.1339
3720.00,1.1339
3719.00,1.1339
3718.00,1.1338
3717.00,1.1338
3716.00,1.1338
3715.00,1.1338
3714.00,1.1337
3713.00,1.1336
3712.00,1.1335
3711.00,1.1335
3710.00,1.1334
3709.00,1.1335
3708.00,1.1336
3707.00,1.1337
3706.00,1.1338
3705.00,1.1340
3704.00,1.1341
3703.00,1.1341
3702.00,1.1342
3701.00,1.1343
3700.00,1.1345
3699.00,1.1345
3698.00,1.1345
3697.00,1.1346
3696.00,1.1347
3695.00,1.1349
3694.00,1.1349
3693.00,1.1349
3692.00,1.1348
3691.00,1.1348
3690.00,1.1347
3689.00,1.1347
3688.00,1.1347
3687.00,1.1350
3686.00,1.1352
3685.00,1.1354
3684.00,1.1356
3683.00,1.1359
3682.00,1.1361
3681.00,1.1362
3680.00,1.1363
3679.00,1.1364
3678.00,1.1365
3677.00,1.1364
3676.00,1.1363
3675.00,1.1365
3674.00,1.1369
3673.00,1.1371
3672.00,1.1373
3671.00,1.1374
3670.00,1.1377
3669.00,1.1381
3668.00,1.1385
3667.00,1.1388
3666.00,1.1391
3665.00,1.1393
3664.00,1.1396
3663.00,1.1398
3662.00,1.1400
3661.00,1.1402
3660.00,1.1404
3659.00,1.1406
3658.00,1.1407
3657.00,1.1408
3656.00,1.1411
3655.00,1.1414
3654.00,1.1416
3653.00,1.1416
3652.00,1.1416
3651.00,1.1417
3650.00,1.1420
3649.00,1.1422
3648.00,1.1424
3647.00,1.1427
3646.00,1.1431
3645.00,1.1434
3644.00,1.1438
3643.00,1.1440
3642.00,1.1444
3641.00,1.1447
3640.00,1.1449
3639.00,1.1450
3638.00,1.1452
3637.00,1.1453
3636.00,1.1454
3635.00,1.1454
3634.00,1.1455
3633.00,1.1456
3632.00,1.1457
3631.00,1.1457
3630.00,1.1456
3629.00,1.1457
3628.00,1.1459
3627.00,1.1462
3626.00,1.1465
3625.00,1.1467
3624.00,1.1470
3623.00,1.1473
3622.00,1.1476
3621.00,1.1479
3620.00,1.1480
3619.00,1.1482
3618.00,1.1484
3617.00,1.1485
3616.00,1.1486
3615.00,1.1486
3614.00,1.1486
3613.00,1.1486
3612.00,1.1487
3611.00,1.1487
3610.00,1.1488
3609.00,1.1488
3608.00,1.1490
3607.00,1.1492
3606.00,1.1494
3605.00,1.1497
3604.00,1.1499
3603.00,1.1501
3602.00,1.1502
3601.00,1.1504
3600.00,1.1505
3599.00,1.1506
3598.00,1.1507
3597.00,1.1508
3596.00,1.1509
3595.00,1.1509
3594.00,1.1510
3593.00,1.1510
3592.00,1.1510
3591.00,1.1510
3590.00,1.1510
3589.00,1.1510
3588.00,1.1511
3587.00,1.1512
3586.00,1.1513
3585.00,1.1514
3584.00,1.1515
3583.00,1.1517
3582.00,1.1518
3581.00,1.1520
3580.00,1.1522
3579.00,1.1523
3578.00,1.1524
3577.00,1.1525
3576.00,1.1525
3575.00,1.1525
3574.00,1.1526
3573.00,1.1526
3572.00,1.1527
3571.00,1.1527
3570.00,1.1527
3569.00,1.1527
3568.00,1.1528
3567.00,1.1529
3566.00,1.1530
3565.00,1.1531
3564.00,1.1532
3563.00,1.1532
3562.00,1.1533
3561.00,1.1534
3560.00,1.1535
3559.00,1.1536
3558.00,1.1537
3557.00,1.1537
3556.00,1.1538
3555.00,1.1539
3554.00,1.1540
3553.00,1.1541
3552.00,1.1541
3551.00,1.1542
3550.00,1.1543
3549.00,1.1543
3548.00,1.1543
3547.00,1.1543
3546.00,1.1543
3545.00,1.1543
3544.00,1.1544
3543.00,1.1546
3542.00,1.1547
3541.00,1.1549
3540.00,1.1550
3539.00,1.1551
3538.00,1.1552
3537.00,1.1553
3536.00,1.1553
3535.00,1.1555
3534.00,1.1556
3533.00,1.1558
3532.00,1.1559
3531.00,1.1561
3530.00,1.1562
3529.00,1.1563
3528.00,1.1563
3527.00,1.1564
3526.00,1.1565
3525.00,1.1566
3524.00,1.1566
3523.00,1.1568
3522.00,1.1570
3521.00,1.1572
3520.00,1.1574
3519.00,1.1575
3518.00,1.1577
3517.00,1.1579
3516.00,1.1580
3515.00,1.1581
3514.00,1.1583
3513.00,1.1585
3512.00,1.1587
3511.00,1.1589
3510.00,1.1591
3509.00,1.1593
3508.00,1.1595
3507.00,1.1596
3506.00,1.1598
3505.00,1.1599
3504.00,1.1601
3503.00,1.1602
3502.00,1.1605
3501.00,1.1607
3500.00,1.1609
3499.00,1.1611
3498.00,1.1613
3497.00,1.1616
3496.00,1.1618
3495.00,1.1620
3494.00,1.1623
3493.00,1.1625
3492.00,1.1627
3491.00,1.1630
3490.00,1.1632
3489.00,1.1634
3488.00,1.1636
3487.00,1.1639
3486.00,1.1641
3485.00,1.1644
3484.00,1.1646
3483.00,1.1649
3482.00,1.1651
3481.00,1.1653
3480.00,1.1656
3479.00,1.1658
3478.00,1.1661
3477.00,1.1665
3476.00,1.1668
3475.00,1.1671
3474.00,1.1674
3473.00,1.1677
3472.00,1.1679
3471.00,1.1681
3470.00,1.1682
3469.00,1.1684
3468.00,1.1687
3467.00,1.1690
3466.00,1.1695
3465.00,1.1699
3464.00,1.1703
3463.00,1.1706
3462.00,1.1709
3461.00,1.1712
3460.00,1.1714
3459.00,1.1717
3458.00,1.1721
3457.00,1.1724
3456.00,1.1728
3455.00,1.1731
3454.00,1.1735
3453.00,1.1738
3452.00,1.1742
3451.00,1.1746
3450.00,1.1749
3449.00,1.1752
3448.00,1.1755
3447.00,1.1758
3446.00,1.1762
3445.00,1.1765
3444.00,1.1769
3443.00,1.1772
3442.00,1.1776
3441.00,1.1779
3440.00,1.1782
3439.00,1.1785
3438.00,1.1787
3437.00,1.1790
3436.00,1.1792
3435.00,1.1795
3434.00,1.1799
3433.00,1.1803
3432.00,1.1807
3431.00,1.1810
3430.00,1.1814
3429.00,1.1817
3428.00,1.1821
3427.00,1.1824
3426.00,1.1828
3425.00,1.1831
3424.00,1.1834
3423.00,1.1837
3422.00,1.1840
3421.00,1.1842
3420.00,1.1845
3419.00,1.1847
3418.00,1.1850
3417.00,1.1852
3416.00,1.1853
3415.00,1.1855
3414.00,1.1857
3413.00,1.1859
3412.00,1.1861
3411.00,1.1863
3410.00,1.1865
3409.00,1.1867
3408.00,1.1869
3407.00,1.1871
3406.00,1.1874
3405.00,1.1876
3404.00,1.1878
3403.00,1.1878
3402.00,1.1879
3401.00,1.1880
3400.00,1.1881
3399.00,1.1884
3398.00,1.1887
3397.00,1.1889
3396.00,1.1892
3395.00,1.1893
3394.00,1.1894
3393.00,1.1894
3392.00,1.1895
3391.00,1.1897
3390.00,1.1899
3389.00,1.1901
3388.00,1.1903
3387.00,1.1904
3386.00,1.1906
3385.00,1.1907
3384.00,1.1908
3383.00,1.1909
3382.00,1.1910
3381.00,1.1912
3380.00,1.1913
3379.00,1.1914
3378.00,1.1915
3377.00,1.1916
3376.00,1.1916
3375.00,1.1917
3374.00,1.1918
3373.00,1.1919
3372.00,1.1919
3371.00,1.1919
3370.00,1.1918
3369.00,1.1918
3368.00,1.1919
3367.00,1.1920
3366.00,1.1922
3365.00,1.1924
3364.00,1.1926
3363.00,1.1927
3362.00,1.1928
3361.00,1.1928
3360.00,1.1928
3359.00,1.1929
3358.00,1.1930
3357.00,1.1931
3356.00,1.1932
3355.00,1.1932
3354.00,1.1932
3353.00,1.1932
3352.00,1.1932
3351.00,1.1932
3350.00,1.1932
3349.00,1.1933
3348.00,1.1934
3347.00,1.1935
3346.00,1.1936
3345.00,1.1937
3344.00,1.1937
3343.00,1.1937
3342.00,1.1938
3341.00,1.1938
3340.00,1.1938
3339.00,1.1938
3338.00,1.1938
3337.00,1.1939
3336.00,1.1940
3335.00,1.1941
3334.00,1.1943
3333.00,1.1944
3332.00,1.1945
3331.00,1.1945
3330.00,1.1946
3329.00,1.1946
3328.00,1.1946
3327.00,1.1946
3326.00,1.1946
3325.00,1.1947
3324.00,1.1948
3323.00,1.1949
3322.00,1.1951
3321.00,1.1952
3320.00,1.1953
3319.00,1.1953
3318.00,1.1954
3317.00,1.1954
3316.00,1.1955
3315.00,1.1957
3314.00,1.1958
3313.00,1.1959
3312.00,1.1959
3311.00,1.1960
3310.00,1.1959
3309.00,1.1959
3308.00,1.1958
3307.00,1.1957
3306.00,1.1957
3305.00,1.1959
3304.00,1.1960
3303.00,1.1963
3302.00,1.1965
3301.00,1.1967
3300.00,1.1968
3299.00,1.1969
3298.00,1.1970
3297.00,1.1971
3296.00,1.1971
3295.00,1.1971
3294.00,1.1971
3293.00,1.1972
3292.00,1.1972
3291.00,1.1974
3290.00,1.1975
3289.00,1.1977
3288.00,1.1978
3287.00,1.1979
3286.00,1.1981
3285.00,1.1982
3284.00,1.1983
3283.00,1.1983
3282.00,1.1984
3281.00,1.1985
3280.00,1.1986
3279.00,1.1987
3278.00,1.1988
3277.00,1.1988
3276.00,1.1989
3275.00,1.1989
3274.00,1.1990
3273.00,1.1990
3272.00,1.1990
3271.00,1.1991
3270.00,1.1992
3269.00,1.1994
3268.00,1.1997
3267.00,1.1999
3266.00,1.2000
3265.00,1.2002
3264.00,1.2002
3263.00,1.2003
3262.00,1.2004
3261.00,1.2005
3260.00,1.2006
3259.00,1.2007
3258.00,1.2008
3257.00,1.2009
3256.00,1.2010
3255.00,1.2011
3254.00,1.2012
3253.00,1.2013
3252.00,1.2014
3251.00,1.2015
3250.00,1.2016
3249.00,1.2016
3248.00,1.2017
3247.00,1.2018
3246.00,1.2019
3245.00,1.2020
3244.00,1.2022
3243.00,1.2023
3242.00,1.2024
3241.00,1.2025
3240.00,1.2026
3239.00,1.2027
3238.00,1.2028
3237.00,1.2029
3236.00,1.2030
3235.00,1.2030
3234.00,1.2030
3233.00,1.2031
3232.00,1.2032
3231.00,1.2033
3230.00,1.2035
3229.00,1.2036
3228.00,1.2037
3227.00,1.2037
3226.00,1.2038
3225.00,1.2039
3224.00,1.2040
3223.00,1.2040
3222.00,1.2040
3221.00,1.2040
3220.00,1.2040
3219.00,1.2040
3218.00,1.2040
3217.00,1.2040
3216.00,1.2040
3215.00,1.2040
3214.00,1.2041
3213.00,1.2041
3212.00,1.2042
3211.00,1.2042
3210.00,1.2042
3209.00,1.2042
3208.00,1.2042
3207.00,1.2042
3206.00,1.2042
3205.00,1.2042
3204.00,1.2042
3203.00,1.2042
3202.00,1.2042
3201.00,1.2042
3200.00,1.2041
3199.00,1.2041
3198.00,1.2041
3197.00,1.2042
3196.00,1.2042
3195.00,1.2042
3194.00,1.2042
3193.00,1.2043
3192.00,1.2042
3191.00,1.2042
3190.00,1.2042
3189.00,1.2042
3188.00,1.2042
3187.00,1.2042
3186.00,1.2042
3185.00,1.2042
3184.00,1.2042
3183.00,1.2042
3182.00,1.2042
3181.00,1.2042
3180.00,1.2043
3179.00,1.2043
3178.00,1.2043
3177.00,1.2043
3176.00,1.2043
3175.00,1.2043
3174.00,1.2043
3173.00,1.2043
3172.00,1.2043
3171.00,1.2044
3170.00,1.2044
3169.00,1.2044
3168.00,1.2044
3167.00,1.2045
3166.00,1.2045
3165.00,1.2045
3164.00,1.2046
3163.00,1.2046
3162.00,1.2046
3161.00,1.2046
3160.00,1.2046
3159.00,1.2046
3158.00,1.2047
3157.00,1.2047
3156.00,1.2047
3155.00,1.2046
3154.00,1.2046
3153.00,1.2046
3152.00,1.2046
3151.00,1.2046
3150.00,1.2047
3149.00,1.2048
3148.00,1.2049
3147.00,1.2049
3146.00,1.2049
3145.00,1.2050
3144.00,1.2051
3143.00,1.2051
3142.00,1.2051
3141.00,1.2051
3140.00,1.2051
3139.00,1.2051
3138.00,1.2051
3137.00,1.2052
3136.00,1.2053
3135.00,1.2054
3134.00,1.2054
3133.00,1.2054
3132.00,1.2055
3131.00,1.2055
3130.00,1.2056
3129.00,1.2056
3128.00,1.2057
3127.00,1.2057
3126.00,1.2058
3125.00,1.2058
3124.00,1.2058
3123.00,1.2058
3122.00,1.2057
3121.00,1.2056
3120.00,1.2056
3119.00,1.2056
3118.00,1.2055
3117.00,1.2055
3116.00,1.2055
3115.00,1.2056
3114.00,1.2057
3113.00,1.2057
3112.00,1.2058
3111.00,1.2058
3110.00,1.2058
3109.00,1.2058
3108.00,1.2058
3107.00,1.2058
3106.00,1.2059
3105.00,1.2059
3104.00,1.2059
3103.00,1.2059
3102.00,1.2059
3101.00,1.2058
3100.00,1.2058
3099.00,1.2057
3098.00,1.2057
3097.00,1.2056
3096.00,1.2056
3095.00,1.2056
3094.00,1.2056
3093.00,1.2055
3092.00,1.2054
3091.00,1.2053
3090.00,1.2053
3089.00,1.2052
3088.00,1.2052
3087.00,1.2051
3086.00,1.2050
3085.00,1.2049
3084.00,1.2049
3083.00,1.2048
3082.00,1.2048
3081.00,1.2047
3080.00,1.2046
3079.00,1.2045
3078.00,1.2044
3077.00,1.2044
3076.00,1.2045
3075.00,1.2045
3074.00,1.2045
3073.00,1.2045
3072.00,1.2045
3071.00,1.2044
3070.00,1.2042
3069.00,1.2041
3068.00,1.2039
3067.00,1.2038
3066.00,1.2038
3065.00,1.2038
3064.00,1.2039
3063.00,1.2039
3062.00,1.2038
3061.00,1.2038
3060.00,1.2037
3059.00,1.2036
3058.00,1.2035
3057.00,1.2034
3056.00,1.2034
3055.00,1.2033
3054.00,1.2032
3053.00,1.2032
3052.00,1.2031
3051.00,1.2031
3050.00,1.2030
3049.00,1.2030
3048.00,1.2029
3047.00,1.2028
3046.00,1.2027
3045.00,1.2025
3044.00,1.2024
3043.00,1.2023
3042.00,1.2023
3041.00,1.2023
3040.00,1.2024
3039.00,1.2024
3038.00,1.2024
3037.00,1.2023
3036.00,1.2022
3035.00,1.2021
3034.00,1.2020
3033.00,1.2020
3032.00,1.2020
3031.00,1.2019
3030.00,1.2018
3029.00,1.2018
3028.00,1.2017
3027.00,1.2016
3026.00,1.2015
3025.00,1.2015
3024.00,1.2014
3023.00,1.2014
3022.00,1.2014
3021.00,1.2013
3020.00,1.2013
3019.00,1.2012
3018.00,1.2011
3017.00,1.2011
3016.00,1.2011
3015.00,1.2010
3014.00,1.2010
3013.00,1.2009
3012.00,1.2009
3011.00,1.2009
3010.00,1.2009
3009.00,1.2010
3008.00,1.2010
3007.00,1.2009
3006.00,1.2009
3005.00,1.2008
3004.00,1.2006
3003.00,1.2005
3002.00,1.2004
3001.00,1.2004
3000.00,1.2003
2999.00,1.2002
2998.00,1.2001
2997.00,1.2000
2996.00,1.1999
2995.00,1.1999
2994.00,1.1998
2993.00,1.1997
2992.00,1.1997
2991.00,1.1996
2990.00,1.1996
2989.00,1.1996
2988.00,1.1996
2987.00,1.1995
2986.00,1.1994
2985.00,1.1993
2984.00,1.1992
2983.00,1.1991
2982.00,1.1990
2981.00,1.1989
2980.00,1.1989
2979.00,1.1988
2978.00,1.1988
2977.00,1.1987
2976.00,1.1986
2975.00,1.1985
2974.00,1.1984
2973.00,1.1983
2972.00,1.1982
2971.00,1.1982
2970.00,1.1981
2969.00,1.1980
2968.00,1.1979
2967.00,1.1979
2966.00,1.1979
2965.00,1.1979
2964.00,1.1979
2963.00,1.1979
2962.00,1.1979
2961.00,1.1979
2960.00,1.1979
2959.00,1.1978
2958.00,1.1978
2957.00,1.1977
2956.00,1.1977
2955.00,1.1976
2954.00,1.1975
2953.00,1.1974
2952.00,1.1973
2951.00,1.1971
2950.00,1.1970
2949.00,1.1969
2948.00,1.1967
2947.00,1.1965
2946.00,1.1964
2945.00,1.1962
2944.00,1.1961
2943.00,1.1960
2942.00,1.1959
2941.00,1.1958
2940.00,1.1957
2939.00,1.1957
2938.00,1.1956
2937.00,1.1956
2936.00,1.1956
2935.00,1.1955
2934.00,1.1955
2933.00,1.1954
2932.00,1.1954
2931.00,1.1953
2930.00,1.1952
2929.00,1.1952
2928.00,1.1952
2927.00,1.1953
2926.00,1.1954
2925.00,1.1955
2924.00,1.1957
2923.00,1.1959
2922.00,1.1960
2921.00,1.1961
2920.00,1.1961
2919.00,1.1961
2918.00,1.1960
2917.00,1.1959
2916.00,1.1958
2915.00,1.1956
2914.00,1.1954
2913.00,1.1953
2912.00,1.1951
2911.00,1.1950
2910.00,1.1949
2909.00,1.1948
2908.00,1.1946
2907.00,1.1945
2906.00,1.1944
2905.00,1.1943
2904.00,1.1942
2903.00,1.1941
2902.00,1.1940
2901.00,1.1939
2900.00,1.1937
2899.00,1.1936
2898.00,1.1935
2897.00,1.1934
2896.00,1.1933
2895.00,1.1932
2894.00,1.1931
2893.00,1.1931
2892.00,1.1930
2891.00,1.1929
2890.00,1.1927
2889.00,1.1926
2888.00,1.1925
2887.00,1.1924
2886.00,1.1923
2885.00,1.1922
2884.00,1.1921
2883.00,1.1920
2882.00,1.1919
2881.00,1.1917
2880.00,1.1916
2879.00,1.1915
2878.00,1.1913
2877.00,1.1912
2876.00,1.1910
2875.00,1.1909
2874.00,1.1907
2873.00,1.1906
2872.00,1.1905
2871.00,1.1904
2870.00,1.1903
2869.00,1.1901
2868.00,1.1900
2867.00,1.1899
2866.00,1.1898
2865.00,1.1897
2864.00,1.1897
2863.00,1.1897
2862.00,1.1898
2861.00,1.1898
2860.00,1.1899
2859.00,1.1900
2858.00,1.1901
2857.00,1.1901
2856.00,1.1901
2855.00,1.1901
2854.00,1.1900
2853.00,1.1900
2852.00,1.1900
2851.00,1.1901
2850.00,1.1901
2849.00,1.1901
2848.00,1.1901
2847.00,1.1900
2846.00,1.1899
2845.00,1.1898
2844.00,1.1897
2843.00,1.1895
2842.00,1.1893
2841.00,1.1892
2840.00,1.1890
2839.00,1.1889
2838.00,1.1888
2837.00,1.1888
2836.00,1.1887
2835.00,1.1886
2834.00,1.1886
2833.00,1.1885
2832.00,1.1884
2831.00,1.1883
2830.00,1.1882
2829.00,1.1881
2828.00,1.1880
2827.00,1.1880
2826.00,1.1879
2825.00,1.1879
2824.00,1.1878
2823.00,1.1878
2822.00,1.1877
2821.00,1.1877
2820.00,1.1876
2819.00,1.1875
2818.00,1.1875
2817.00,1.1874
2816.00,1.1874
2815.00,1.1873
2814.00,1.1872
2813.00,1.1872
2812.00,1.1871
2811.00,1.1870
2810.00,1.1869
2809.00,1.1868
2808.00,1.1868
2807.00,1.1867
2806.00,1.1867
2805.00,1.1866
2804.00,1.1866
2803.00,1.1865
2802.00,1.1865
2801.00,1.1864
2800.00,1.1864
2799.00,1.1863
2798.00,1.1862
2797.00,1.1862
2796.00,1.1862
2795.00,1.1861
2794.00,1.1861
2793.00,1.1861
2792.00,1.1860
2791.00,1.1859
2790.00,1.1859
2789.00,1.1859
2788.00,1.1859
2787.00,1.1858
2786.00,1.1858
2785.00,1.1858
2784.00,1.1857
2783.00,1.1857
2782.00,1.1856
2781.00,1.1856
2780.00,1.1856
2779.00,1.1855
2778.00,1.1854
2777.00,1.1854
2776.00,1.1853
2775.00,1.1853
2774.00,1.1852
2773.00,1.1852
2772.00,1.1852
2771.00,1.1852
2770.00,1.1852
2769.00,1.1851
2768.00,1.1851
2767.00,1.1851
2766.00,1.1851
2765.00,1.1850
2764.00,1.1850
2763.00,1.1849
2762.00,1.1849
2761.00,1.1848
2760.00,1.1848
2759.00,1.1847
2758.00,1.1847
2757.00,1.1847
2756.00,1.1847
2755.00,1.1847
2754.00,1.1847
2753.00,1.1847
2752.00,1.1847
2751.00,1.1847
2750.00,1.1846
2749.00,1.1846
2748.00,1.1845
2747.00,1.1845
2746.00,1.1845
2745.00,1.1845
2744.00,1.1845
2743.00,1.1845
2742.00,1.1844
2741.00,1.1844
2740.00,1.1844
2739.00,1.1844
2738.00,1.1843
2737.00,1.1843
2736.00,1.1842
2735.00,1.1842
2734.00,1.1842
2733.00,1.1842
2732.00,1.1842
2731.00,1.1842
2730.00,1.1842
2729.00,1.1841
2728.00,1.1840
2727.00,1.1840
2726.00,1.1840
2725.00,1.1840
2724.00,1.1840
2723.00,1.1839
2722.00,1.1839
2721.00,1.1838
2720.00,1.1838
2719.00,1.1838
2718.00,1.1838
2717.00,1.1838
2716.00,1.1838
2715.00,1.1838
2714.00,1.1838
2713.00,1.1838
2712.00,1.1838
2711.00,1.1838
2710.00,1.1838
2709.00,1.1838
2708.00,1.1837
2707.00,1.1837
2706.00,1.1837
2705.00,1.1836
2704.00,1.1836
2703.00,1.1836
2702.00,1.1836
2701.00,1.1836
2700.00,1.1836
2699.00,1.1836
2698.00,1.1836
2697.00,1.1836
2696.00,1.1836
2695.00,1.1836
2694.00,1.1836
2693.00,1.1836
2692.00,1.1836
2691.00,1.1836
2690.00,1.1836
2689.00,1.1836
2688.00,1.1836
2687.00,1.1836
2686.00,1.1835
2685.00,1.1835
2684.00,1.1835
2683.00,1.1835
2682.00,1.1835
2681.00,1.1835
2680.00,1.1835
2679.00,1.1835
2678.00,1.1835
2677.00,1.1836
2676.00,1.1836
2675.00,1.1836
2674.00,1.1836
2673.00,1.1837
2672.00,1.1837
2671.00,1.1836
2670.00,1.1836
2669.00,1.1836
2668.00,1.1836
2667.00,1.1836
2666.00,1.1836
2665.00,1.1836
2664.00,1.1836
2663.00,1.1836
2662.00,1.1837
2661.00,1.1837
2660.00,1.1837
2659.00,1.1838
2658.00,1.1838
2657.00,1.1838
2656.00,1.1838
2655.00,1.1838
2654.00,1.1838
2653.00,1.1838
2652.00,1.1838
2651.00,1.1839
2650.00,1.1839
2649.00,1.1839
2648.00,1.1840
2647.00,1.1840
2646.00,1.1840
2645.00,1.1840
2644.00,1.1840
2643.00,1.1840
2642.00,1.1840
2641.00,1.1840
2640.00,1.1840
2639.00,1.1840
2638.00,1.1841
2637.00,1.1841
2636.00,1.1841
2635.00,1.1841
2634.00,1.1841
2633.00,1.1842
2632.00,1.1842
2631.00,1.1842
2630.00,1.1842
2629.00,1.1842
2628.00,1.1842
2627.00,1.1843
2626.00,1.1843
2625.00,1.1843
2624.00,1.1843
2623.00,1.1843
2622.00,1.1844
2621.00,1.1844
2620.00,1.1844
2619.00,1.1844
2618.00,1.1844
2617.00,1.1844
2616.00,1.1844
2615.00,1.1844
2614.00,1.1844
2613.00,1.1845
2612.00,1.1845
2611.00,1.1845
2610.00,1.1846
2609.00,1.1846
2608.00,1.1846
2607.00,1.1846
2606.00,1.1846
2605.00,1.1846
2604.00,1.1847
2603.00,1.1847
2602.00,1.1847
2601.00,1.1848
2600.00,1.1848
2599.00,1.1849
2598.00,1.1849
2597.00,1.1849
2596.00,1.1849
2595.00,1.1849
2594.00,1.1849
2593.00,1.1849
2592.00,1.1850
2591.00,1.1850
2590.00,1.1850
2589.00,1.1850
2588.00,1.1850
2587.00,1.1850
2586.00,1.1851
2585.00,1.1851
2584.00,1.1852
2583.00,1.1852
2582.00,1.1852
2581.00,1.1852
2580.00,1.1852
2579.00,1.1853
2578.00,1.1853
2577.00,1.1853
2576.00,1.1853
2575.00,1.1853
2574.00,1.1853
2573.00,1.1853
2572.00,1.1854
2571.00,1.1854
2570.00,1.1855
2569.00,1.1855
2568.00,1.1855
2567.00,1.1855
2566.00,1.1856
2565.00,1.1856
2564.00,1.1857
2563.00,1.1857
2562.00,1.1857
2561.00,1.1857
2560.00,1.1857
2559.00,1.1858
2558.00,1.1858
2557.00,1.1859
2556.00,1.1859
2555.00,1.1859
2554.00,1.1859
2553.00,1.1860
2552.00,1.1860
2551.00,1.1861
2550.00,1.1861
2549.00,1.1861
2548.00,1.1862
2547.00,1.1862
2546.00,1.1862
2545.00,1.1862
2544.00,1.1863
2543.00,1.1863
2542.00,1.1863
2541.00,1.1864
2540.00,1.1864
2539.00,1.1864
2538.00,1.1865
2537.00,1.1865
2536.00,1.1865
2535.00,1.1865
2534.00,1.1866
2533.00,1.1866
2532.00,1.1866
2531.00,1.1866
2530.00,1.1866
2529.00,1.1867
2528.00,1.1867
2527.00,1.1868
2526.00,1.1868
2525.00,1.1868
2524.00,1.1869
2523.00,1.1869
2522.00,1.1869
2521.00,1.1870
2520.00,1.1870
2519.00,1.1870
2518.00,1.1871
2517.00,1.1871
2516.00,1.1871
2515.00,1.1871
2514.00,1.1871
2513.00,1.1872
2512.00,1.1872
2511.00,1.1873
2510.00,1.1873
2509.00,1.1874
2508.00,1.1874
2507.00,1.1874
2506.00,1.1875
2505.00,1.1875
2504.00,1.1876
2503.00,1.1876
2502.00,1.1876
2501.00,1.1877
2500.00,1.1877
2499.00,1.1877
2498.00,1.1878
2497.00,1.1878
2496.00,1.1878
2495.00,1.1879
2494.00,1.1879
2493.00,1.1879
2492.00,1.1879
2491.00,1.1879
2490.00,1.1879
2489.00,1.1880
2488.00,1.1880
2487.00,1.1881
2486.00,1.1881
2485.00,1.1881
2484.00,1.1882
2483.00,1.1882
2482.00,1.1882
2481.00,1.1882
2480.00,1.1883
2479.00,1.1883
2478.00,1.1883
2477.00,1.1884
2476.00,1.1884
2475.00,1.1884
2474.00,1.1885
2473.00,1.1885
2472.00,1.1886
2471.00,1.1886
2470.00,1.1886
2469.00,1.1887
2468.00,1.1887
2467.00,1.1887
2466.00,1.1887
2465.00,1.1888
2464.00,1.1888
2463.00,1.1888
2462.00,1.1889
2461.00,1.1889
2460.00,1.1890
2459.00,1.1890
2458.00,1.1890
2457.00,1.1890
2456.00,1.1890
2455.00,1.1890
2454.00,1.1890
2453.00,1.1891
2452.00,1.1891
2451.00,1.1891
2450.00,1.1891
2449.00,1.1891
2448.00,1.1891
2447.00,1.1891
2446.00,1.1891
2445.00,1.1891
2444.00,1.1891
2443.00,1.1891
2442.00,1.1891
2441.00,1.1891
2440.00,1.1891
2439.00,1.1891
2438.00,1.1891
2437.00,1.1891
2436.00,1.1892
2435.00,1.1892
2434.00,1.1892
2433.00,1.1891
2432.00,1.1891
2431.00,1.1891
2430.00,1.1891
2429.00,1.1891
2428.00,1.1891
2427.00,1.1891
2426.00,1.1890
2425.00,1.1890
2424.00,1.1890
2423.00,1.1890
2422.00,1.1890
2421.00,1.1890
2420.00,1.1889
2419.00,1.1889
2418.00,1.1888
2417.00,1.1888
2416.00,1.1887
2415.00,1.1887
2414.00,1.1886
2413.00,1.1886
2412.00,1.1886
2411.00,1.1886
2410.00,1.1885
2409.00,1.1885
2408.00,1.1885
2407.00,1.1885
2406.00,1.1885
2405.00,1.1884
2404.00,1.1884
2403.00,1.1884
2402.00,1.1883
2401.00,1.1883
2400.00,1.1883
2399.00,1.1883
2398.00,1.1882
2397.00,1.1882
2396.00,1.1882
2395.00,1.1882
2394.00,1.1882
2393.00,1.1882
2392.00,1.1882
2391.00,1.1881
2390.00,1.1881
2389.00,1.1881
2388.00,1.1881
2387.00,1.1882
2386.00,1.1882
2385.00,1.1882
2384.00,1.1882
2383.00,1.1882
2382.00,1.1881
2381.00,1.1882
2380.00,1.1882
2379.00,1.1881
2378.00,1.1881
2377.00,1.1881
2376.00,1.1880
2375.00,1.1880
2374.00,1.1879
2373.00,1.1879
2372.00,1.1879
2371.00,1.1879
2370.00,1.1879
2369.00,1.1880
2368.00,1.1880
2367.00,1.1881
2366.00,1.1882
2365.00,1.1883
2364.00,1.1883
2363.00,1.1884
2362.00,1.1885
2361.00,1.1886
2360.00,1.1886
2359.00,1.1887
2358.00,1.1887
2357.00,1.1888
2356.00,1.1889
2355.00,1.1890
2354.00,1.1892
2353.00,1.1893
2352.00,1.1894
2351.00,1.1894
2350.00,1.1892
2349.00,1.1888
2348.00,1.1882
2347.00,1.1878
2346.00,1.1877
2345.00,1.1879
2344.00,1.1884
2343.00,1.1888
2342.00,1.1892
2341.00,1.1895
2340.00,1.1897
2339.00,1.1898
2338.00,1.1897
2337.00,1.1896
2336.00,1.1894
2335.00,1.1893
2334.00,1.1892
2333.00,1.1891
2332.00,1.1891
2331.00,1.1891
2330.00,1.1891
2329.00,1.1891
2328.00,1.1891
2327.00,1.1891
2326.00,1.1891
2325.00,1.1892
2324.00,1.1893
2323.00,1.1893
2322.00,1.1893
2321.00,1.1893
2320.00,1.1893
2319.00,1.1893
2318.00,1.1893
2317.00,1.1894
2316.00,1.1894
2315.00,1.1894
2314.00,1.1893
2313.00,1.1894
2312.00,1.1894
2311.00,1.1894
2310.00,1.1894
2309.00,1.1894
2308.00,1.1894
2307.00,1.1894
2306.00,1.1894
2305.00,1.1895
2304.00,1.1895
2303.00,1.1895
2302.00,1.1895
2301.00,1.1895
2300.00,1.1895
2299.00,1.1895
2298.00,1.1895
2297.00,1.1895
2296.00,1.1896
2295.00,1.1896
2294.00,1.1896
2293.00,1.1896
2292.00,1.1896
2291.00,1.1896
2290.00,1.1897
2289.00,1.1897
2288.00,1.1898
2287.00,1.1898
2286.00,1.1899
2285.00,1.1899
2284.00,1.1900
2283.00,1.1900
2282.00,1.1900
2281.00,1.1900
2280.00,1.1900
2279.00,1.1900
2278.00,1.1900
2277.00,1.1901
2276.00,1.1901
2275.00,1.1901
2274.00,1.1901
2273.00,1.1901
2272.00,1.1902
2271.00,1.1902
2270.00,1.1902
2269.00,1.1902
2268.00,1.1903
2267.00,1.1903
2266.00,1.1903
2265.00,1.1903
2264.00,1.1904
2263.00,1.1904
2262.00,1.1904
2261.00,1.1905
2260.00,1.1905
2259.00,1.1905
2258.00,1.1905
2257.00,1.1905
2256.00,1.1905
2255.00,1.1906
2254.00,1.1906
2253.00,1.1906
2252.00,1.1907
2251.00,1.1907
2250.00,1.1907
2249.00,1.1907
2248.00,1.1907
2247.00,1.1907
2246.00,1.1906
2245.00,1.1906
2244.00,1.1906
2243.00,1.1906
2242.00,1.1906
2241.00,1.1906
2240.00,1.1906
2239.00,1.1906
2238.00,1.1907
2237.00,1.1907
2236.00,1.1907
2235.00,1.1908
2234.00,1.1908
2233.00,1.1908
2232.00,1.1908
2231.00,1.1908
2230.00,1.1908
2229.00,1.1908
2228.00,1.1909
2227.00,1.1909
2226.00,1.1909
2225.00,1.1909
2224.00,1.1909
2223.00,1.1909
2222.00,1.1909
2221.00,1.1909
2220.00,1.1909
2219.00,1.1908
2218.00,1.1908
2217.00,1.1908
2216.00,1.1908
2215.00,1.1907
2214.00,1.1907
2213.00,1.1907
2212.00,1.1907
2211.00,1.1907
2210.00,1.1907
2209.00,1.1907
2208.00,1.1907
2207.00,1.1907
2206.00,1.1907
2205.00,1.1906
2204.00,1.1906
2203.00,1.1906
2202.00,1.1906
2201.00,1.1906
2200.00,1.1906
2199.00,1.1906
2198.00,1.1905
2197.00,1.1905
2196.00,1.1905
2195.00,1.1905
2194.00,1.1905
2193.00,1.1905
2192.00,1.1905
2191.00,1.1905
2190.00,1.1905
2189.00,1.1904
2188.00,1.1904
2187.00,1.1904
2186.00,1.1904
2185.00,1.1904
2184.00,1.1903
2183.00,1.1903
2182.00,1.1902
2181.00,1.1902
2180.00,1.1902
2179.00,1.1902
2178.00,1.1902
2177.00,1.1902
2176.00,1.1902
2175.00,1.1901
2174.00,1.1900
2173.00,1.1900
2172.00,1.1900
2171.00,1.1899
2170.00,1.1899
2169.00,1.1899
2168.00,1.1899
2167.00,1.1899
2166.00,1.1898
2165.00,1.1898
2164.00,1.1897
2163.00,1.1897
2162.00,1.1896
2161.00,1.1896
2160.00,1.1896
2159.00,1.1895
2158.00,1.1895
2157.00,1.1894
2156.00,1.1894
2155.00,1.1894
2154.00,1.1893
2153.00,1.1893
2152.00,1.1893
2151.00,1.1892
2150.00,1.1891
2149.00,1.1891
2148.00,1.1890
2147.00,1.1890
2146.00,1.1889
2145.00,1.1889
2144.00,1.1889
2143.00,1.1888
2142.00,1.1888
2141.00,1.1887
2140.00,1.1887
2139.00,1.1886
2138.00,1.1886
2137.00,1.1885
2136.00,1.1885
2135.00,1.1884
2134.00,1.1883
2133.00,1.1883
2132.00,1.1883
2131.00,1.1882
2130.00,1.1882
2129.00,1.1881
2128.00,1.1881
2127.00,1.1880
2126.00,1.1879
2125.00,1.1879
2124.00,1.1879
2123.00,1.1878
2122.00,1.1878
2121.00,1.1878
2120.00,1.1877
2119.00,1.1876
2118.00,1.1876
2117.00,1.1875
2116.00,1.1875
2115.00,1.1875
2114.00,1.1874
2113.00,1.1873
2112.00,1.1872
2111.00,1.1872
2110.00,1.1871
2109.00,1.1871
2108.00,1.1870
2107.00,1.1870
2106.00,1.1869
2105.00,1.1868
2104.00,1.1868
2103.00,1.1867
2102.00,1.1866
2101.00,1.1866
2100.00,1.1865
2099.00,1.1865
2098.00,1.1864
2097.00,1.1863
2096.00,1.1863
2095.00,1.1863
2094.00,1.1862
2093.00,1.1862
2092.00,1.1862
2091.00,1.1861
2090.00,1.1860
2089.00,1.1860
2088.00,1.1859
2087.00,1.1859
2086.00,1.1858
2085.00,1.1857
2084.00,1.1856
2083.00,1.1855
2082.00,1.1854
2081.00,1.1854
2080.00,1.1854
2079.00,1.1853
2078.00,1.1852
2077.00,1.1852
2076.00,1.1851
2075.00,1.1851
2074.00,1.1850
2073.00,1.1850
2072.00,1.1849
2071.00,1.1848
2070.00,1.1848
2069.00,1.1847
2068.00,1.1846
2067.00,1.1846
2066.00,1.1845
2065.00,1.1845
2064.00,1.1844
2063.00,1.1843
2062.00,1.1842
2061.00,1.1842
2060.00,1.1841
2059.00,1.1841
2058.00,1.1840
2057.00,1.1840
2056.00,1.1839
2055.00,1.1839
2054.00,1.1838
2053.00,1.1837
2052.00,1.1837
2051.00,1.1836
2050.00,1.1835
2049.00,1.1834
2048.00,1.1834
2047.00,1.1833
2046.00,1.1832
2045.00,1.1832
2044.00,1.1832
2043.00,1.1831
2042.00,1.1830
2041.00,1.1830
2040.00,1.1829
2039.00,1.1829
2038.00,1.1828
2037.00,1.1827
2036.00,1.1827
2035.00,1.1826
2034.00,1.1825
2033.00,1.1824
2032.00,1.1824
2031.00,1.1824
2030.00,1.1823
2029.00,1.1823
2028.00,1.1823
2027.00,1.1822
2026.00,1.1821
2025.00,1.1821
2024.00,1.1820
2023.00,1.1819
2022.00,1.1819
2021.00,1.1818
2020.00,1.1818
2019.00,1.1817
2018.00,1.1817
2017.00,1.1816
2016.00,1.1816
2015.00,1.1815
2014.00,1.1814
2013.00,1.1814
2012.00,1.1813
2011.00,1.1813
2010.00,1.1812
2009.00,1.1812
2008.00,1.1812
2007.00,1.1811
2006.00,1.1811
2005.00,1.1810
2004.00,1.1810
2003.00,1.1809
2002.00,1.1809
2001.00,1.1808
2000.00,1.1808
1999.00,1.1807
1998.00,1.1807
1997.00,1.1807
1996.00,1.1806
1995.00,1.1806
1994.00,1.1806
1993.00,1.1806
1992.00,1.1806
1991.00,1.1805
1990.00,1.1804
1989.00,1.1803
1988.00,1.1803
1987.00,1.1802
1986.00,1.1802
1985.00,1.1801
1984.00,1.1801
1983.00,1.1801
1982.00,1.1801
1981.00,1.1800
1980.00,1.1800
1979.00,1.1799
1978.00,1.1799
1977.00,1.1799
1976.00,1.1798
1975.00,1.1798
1974.00,1.1797
1973.00,1.1797
1972.00,1.1797
1971.00,1.1797
1970.00,1.1797
1969.00,1.1797
1968.00,1.1797
1967.00,1.1796
1966.00,1.1796
1965.00,1.1795
1964.00,1.1795
1963.00,1.1794
1962.00,1.1794
1961.00,1.1794
1960.00,1.1794
1959.00,1.1794
1958.00,1.1794
1957.00,1.1795
1956.00,1.1795
1955.00,1.1794
1954.00,1.1793
1953.00,1.1793
1952.00,1.1793
1951.00,1.1792
1950.00,1.1792
1949.00,1.1792
1948.00,1.1792
1947.00,1.1791
1946.00,1.1791
1945.00,1.1792
1944.00,1.1793
1943.00,1.1793
1942.00,1.1793
1941.00,1.1792
1940.00,1.1792
1939.00,1.1791
1938.00,1.1791
1937.00,1.1791
1936.00,1.1791
1935.00,1.1790
1934.00,1.1790
1933.00,1.1790
1932.00,1.1790
1931.00,1.1790
1930.00,1.1790
1929.00,1.1790
1928.00,1.1790
1927.00,1.1790
1926.00,1.1790
1925.00,1.1791
1924.00,1.1792
1923.00,1.1792
1922.00,1.1791
1921.00,1.1792
1920.00,1.1793
1919.00,1.1793
1918.00,1.1793
1917.00,1.1792
1916.00,1.1792
1915.00,1.1791
1914.00,1.1790
1913.00,1.1791
1912.00,1.1792
1911.00,1.1792
1910.00,1.1792
1909.00,1.1792
1908.00,1.1793
1907.00,1.1793
1906.00,1.1792
1905.00,1.1793
1904.00,1.1793
1903.00,1.1793
1902.00,1.1792
1901.00,1.1792
1900.00,1.1793
1899.00,1.1793
1898.00,1.1793
1897.00,1.1793
1896.00,1.1794
1895.00,1.1794
1894.00,1.1793
1893.00,1.1794
1892.00,1.1795
1891.00,1.1795
1890.00,1.1795
1889.00,1.1795
1888.00,1.1795
1887.00,1.1794
1886.00,1.1793
1885.00,1.1794
1884.00,1.1794
1883.00,1.1794
1882.00,1.1794
1881.00,1.1795
1880.00,1.1796
1879.00,1.1796
1878.00,1.1795
1877.00,1.1795
1876.00,1.1796
1875.00,1.1796
1874.00,1.1795
1873.00,1.1795
1872.00,1.1797
1871.00,1.1799
1870.00,1.1800
1869.00,1.1801
1868.00,1.1801
1867.00,1.1799
1866.00,1.1797
1865.00,1.1796
1864.00,1.1797
1863.00,1.1797
1862.00,1.1797
1861.00,1.1797
1860.00,1.1798
1859.00,1.1798
1858.00,1.1798
1857.00,1.1798
1856.00,1.1799
1855.00,1.1800
1854.00,1.1799
1853.00,1.1799
1852.00,1.1800
1851.00,1.1800
1850.00,1.1799
1849.00,1.1800
1848.00,1.1801
1847.00,1.1802
1846.00,1.1805
1845.00,1.1808
1844.00,1.1808
1843.00,1.1805
1842.00,1.1802
1841.00,1.1801
1840.00,1.1801
1839.00,1.1802
1838.00,1.1802
1837.00,1.1803
1836.00,1.1804
1835.00,1.1804
1834.00,1.1804
1833.00,1.1805
1832.00,1.1807
1831.00,1.1809
1830.00,1.1810
1829.00,1.1809
1828.00,1.1808
1827.00,1.1807
1826.00,1.1807
1825.00,1.1807
1824.00,1.1808
1823.00,1.1809
1822.00,1.1809
1821.00,1.1809
1820.00,1.1811
1819.00,1.1812
1818.00,1.1812
1817.00,1.1812
1816.00,1.1813
1815.00,1.1813
1814.00,1.1813
1813.00,1.1813
1812.00,1.1814
1811.00,1.1815
1810.00,1.1814
1809.00,1.1814
1808.00,1.1816
1807.00,1.1816
1806.00,1.1815
1805.00,1.1816
1804.00,1.1817
1803.00,1.1818
1802.00,1.1817
1801.00,1.1817
1800.00,1.1818
1799.00,1.1819
1798.00,1.1818
1797.00,1.1819
1796.00,1.1820
1795.00,1.1821
1794.00,1.1820
1793.00,1.1820
1792.00,1.1822
1791.00,1.1822
1790.00,1.1821
1789.00,1.1821
1788.00,1.1823
1787.00,1.1824
1786.00,1.1824
1785.00,1.1824
1784.00,1.1825
1783.00,1.1826
1782.00,1.1826
1781.00,1.1827
1780.00,1.1828
1779.00,1.1828
1778.00,1.1829
1777.00,1.1830
1776.00,1.1830
1775.00,1.1832
1774.00,1.1833
1773.00,1.1834
1772.00,1.1834
1771.00,1.1834
1770.00,1.1834
1769.00,1.1835
1768.00,1.1835
1767.00,1.1837
1766.00,1.1837
1765.00,1.1837
1764.00,1.1839
1763.00,1.1841
1762.00,1.1842
1761.00,1.1842
1760.00,1.1842
1759.00,1.1843
1758.00,1.1845
1757.00,1.1845
1756.00,1.1844
1755.00,1.1843
1754.00,1.1843
1753.00,1.1842
1752.00,1.1840
1751.00,1.1841
1750.00,1.1843
1749.00,1.1846
1748.00,1.1847
1747.00,1.1849
1746.00,1.1852
1745.00,1.1853
1744.00,1.1853
1743.00,1.1854
1742.00,1.1855
1741.00,1.1855
1740.00,1.1855
1739.00,1.1856
1738.00,1.1856
1737.00,1.1856
1736.00,1.1855
1735.00,1.1853
1734.00,1.1853
1733.00,1.1854
1732.00,1.1857
1731.00,1.1860
1730.00,1.1862
1729.00,1.1865
1728.00,1.1867
1727.00,1.1867
1726.00,1.1867
1725.00,1.1868
1724.00,1.1870
1723.00,1.1870
1722.00,1.1867
1721.00,1.1867
1720.00,1.1868
1719.00,1.1869
1718.00,1.1867
1717.00,1.1868
1716.00,1.1872
1715.00,1.1874
1714.00,1.1871
1713.00,1.1871
1712.00,1.1874
1711.00,1.1876
1710.00,1.1874
1709.00,1.1874
1708.00,1.1877
1707.00,1.1878
1706.00,1.1876
1705.00,1.1876
1704.00,1.1878
1703.00,1.1878
1702.00,1.1876
1701.00,1.1875
1700.00,1.1877
1699.00,1.1878
1698.00,1.1878
1697.00,1.1880
1696.00,1.1885
1695.00,1.1887
1694.00,1.1885
1693.00,1.1884
1692.00,1.1884
1691.00,1.1885
1690.00,1.1885
1689.00,1.1885
1688.00,1.1885
1687.00,1.1886
1686.00,1.1889
1685.00,1.1892
1684.00,1.1893
1683.00,1.1892
1682.00,1.1892
1681.00,1.1892
1680.00,1.1891
1679.00,1.1890
1678.00,1.1891
1677.00,1.1891
1676.00,1.1889
1675.00,1.1889
1674.00,1.1890
1673.00,1.1892
1672.00,1.1890
1671.00,1.1890
1670.00,1.1892
1669.00,1.1894
1668.00,1.1895
1667.00,1.1895
1666.00,1.1897
1665.00,1.1899
1664.00,1.1900
1663.00,1.1899
1662.00,1.1899
1661.00,1.1900
1660.00,1.1899
1659.00,1.1898
1658.00,1.1900
1657.00,1.1900
1656.00,1.1900
1655.00,1.1900
1654.00,1.1902
1653.00,1.1903
1652.00,1.1904
1651.00,1.1904
1650.00,1.1904
1649.00,1.1903
1648.00,1.1902
1647.00,1.1903
1646.00,1.1904
1645.00,1.1904
1644.00,1.1904
1643.00,1.1905
1642.00,1.1905
1641.00,1.1904
1640.00,1.1903
1639.00,1.1904
1638.00,1.1904
1637.00,1.1904
1636.00,1.1905
1635.00,1.1905
1634.00,1.1906
1633.00,1.1906
1632.00,1.1906
1631.00,1.1906
1630.00,1.1905
1629.00,1.1906
1628.00,1.1906
1627.00,1.1906
1626.00,1.1907
1625.00,1.1907
1624.00,1.1906
1623.00,1.1905
1622.00,1.1906
1621.00,1.1907
1620.00,1.1908
1619.00,1.1907
1618.00,1.1909
1617.00,1.1911
1616.00,1.1911
1615.00,1.1910
1614.00,1.1911
1613.00,1.1912
1612.00,1.1910
1611.00,1.1909
1610.00,1.1911
1609.00,1.1914
1608.00,1.1915
1607.00,1.1916
1606.00,1.1918
1605.00,1.1919
1604.00,1.1918
1603.00,1.1918
1602.00,1.1919
1601.00,1.1920
1600.00,1.1919
1599.00,1.1918
1598.00,1.1920
1597.00,1.1921
1596.00,1.1920
1595.00,1.1919
1594.00,1.1920
1593.00,1.1921
1592.00,1.1920
1591.00,1.1920
1590.00,1.1920
1589.00,1.1921
1588.00,1.1921
1587.00,1.1920
1586.00,1.1921
1585.00,1.1922
1584.00,1.1921
1583.00,1.1920
1582.00,1.1922
1581.00,1.1924
1580.00,1.1924
1579.00,1.1925
1578.00,1.1927
1577.00,1.1929
1576.00,1.1927
1575.00,1.1925
1574.00,1.1926
1573.00,1.1926
1572.00,1.1924
1571.00,1.1922
1570.00,1.1923
1569.00,1.1924
1568.00,1.1921
1567.00,1.1920
1566.00,1.1922
1565.00,1.1924
1564.00,1.1922
1563.00,1.1923
1562.00,1.1927
1561.00,1.1929
1560.00,1.1927
1559.00,1.1924
1558.00,1.1925
1557.00,1.1927
1556.00,1.1926
1555.00,1.1925
1554.00,1.1926
1553.00,1.1926
1552.00,1.1924
1551.00,1.1924
1550.00,1.1925
1549.00,1.1926
1548.00,1.1924
1547.00,1.1923
1546.00,1.1925
1545.00,1.1927
1544.00,1.1929
1543.00,1.1929
1542.00,1.1929
1541.00,1.1929
1540.00,1.1928
1539.00,1.1926
1538.00,1.1926
1537.00,1.1928
1536.00,1.1929
1535.00,1.1929
1534.00,1.1928
1533.00,1.1929
1532.00,1.1929
1531.00,1.1928
1530.00,1.1928
1529.00,1.1928
1528.00,1.1929
1527.00,1.1929
1526.00,1.1928
1525.00,1.1927
1524.00,1.1926
1523.00,1.1925
1522.00,1.1925
1521.00,1.1926
1520.00,1.1927
1519.00,1.1927
1518.00,1.1926
1517.00,1.1925
1516.00,1.1925
1515.00,1.1925
1514.00,1.1925
1513.00,1.1924
1512.00,1.1925
1511.00,1.1926
1510.00,1.1924
1509.00,1.1921
1508.00,1.1920
1507.00,1.1919
1506.00,1.1918
1505.00,1.1917
1504.00,1.1918
1503.00,1.1919
1502.00,1.1918
1501.00,1.1915
1500.00,1.1913
1499.00,1.1912
1498.00,1.1910
1497.00,1.1908
1496.00,1.1912
1495.00,1.1919
1494.00,1.1925
1493.00,1.1929
1492.00,1.1933
1491.00,1.1935
1490.00,1.1934
1489.00,1.1935
1488.00,1.1936
1487.00,1.1935
1486.00,1.1933
1485.00,1.1932
1484.00,1.1932
1483.00,1.1931
1482.00,1.1928
1481.00,1.1928
1480.00,1.1927
1479.00,1.1926
1478.00,1.1923
1477.00,1.1922
1476.00,1.1922
1475.00,1.1920
1474.00,1.1918
1473.00,1.1917
1472.00,1.1918
1471.00,1.1919
1470.00,1.1919
1469.00,1.1920
1468.00,1.1921
1467.00,1.1922
1466.00,1.1921
1465.00,1.1919
1464.00,1.1919
1463.00,1.1919
1462.00,1.1918
1461.00,1.1917
1460.00,1.1916
1459.00,1.1917
1458.00,1.1916
1457.00,1.1912
1456.00,1.1908
1455.00,1.1908
1454.00,1.1911
1453.00,1.1912
1452.00,1.1915
1451.00,1.1919
1450.00,1.1923
1449.00,1.1924
1448.00,1.1924
1447.00,1.1925
1446.00,1.1925
1445.00,1.1922
1444.00,1.1919
1443.00,1.1919
1442.00,1.1920
1441.00,1.1918
1440.00,1.1917
1439.00,1.1917
1438.00,1.1918
1437.00,1.1915
1436.00,1.1913
1435.00,1.1914
1434.00,1.1916
1433.00,1.1914
1432.00,1.1913
1431.00,1.1914
1430.00,1.1916
1429.00,1.1915
1428.00,1.1913
1427.00,1.1913
1426.00,1.1914
1425.00,1.1912
1424.00,1.1909
1423.00,1.1910
1422.00,1.1914
1421.00,1.1915
1420.00,1.1914
1419.00,1.1915
1418.00,1.1914
1417.00,1.1910
1416.00,1.1907
1415.00,1.1908
1414.00,1.1910
1413.00,1.1909
1412.00,1.1907
1411.00,1.1907
1410.00,1.1907
1409.00,1.1906
1408.00,1.1904
1407.00,1.1903
1406.00,1.1905
1405.00,1.1905
1404.00,1.1905
1403.00,1.1906
1402.00,1.1908
1401.00,1.1908
1400.00,1.1907
1399.00,1.1906
1398.00,1.1907
1397.00,1.1907
1396.00,1.1906
1395.00,1.1907
1394.00,1.1907
1393.00,1.1905
1392.00,1.1902
1391.00,1.1902
1390.00,1.1903
1389.00,1.1903
1388.00,1.1902
1387.00,1.1901
1386.00,1.1900
1385.00,1.1900
1384.00,1.1899
1383.00,1.1900
1382.00,1.1901
1381.00,1.1900
1380.00,1.1899
1379.00,1.1898
1378.00,1.1898
1377.00,1.1897
1376.00,1.1896
1375.00,1.1895
1374.00,1.1895
1373.00,1.1895
1372.00,1.1894
1371.00,1.1893
1370.00,1.1893
1369.00,1.1893
1368.00,1.1892
1367.00,1.1891
1366.00,1.1891
1365.00,1.1891
1364.00,1.1891
1363.00,1.1891
1362.00,1.1890
1361.00,1.1889
1360.00,1.1888
1359.00,1.1887
1358.00,1.1887
1357.00,1.1886
1356.00,1.1886
1355.00,1.1885
1354.00,1.1885
1353.00,1.1885
1352.00,1.1885
1351.00,1.1885
1350.00,1.1885
1349.00,1.1885
1348.00,1.1884
1347.00,1.1883
1346.00,1.1883
1345.00,1.1882
1344.00,1.1881
1343.00,1.1880
1342.00,1.1880
1341.00,1.1880
1340.00,1.1880
1339.00,1.1880
1338.00,1.1880
1337.00,1.1880
1336.00,1.1879
1335.00,1.1878
1334.00,1.1878
1333.00,1.1877
1332.00,1.1876
1331.00,1.1876
1330.00,1.1876
1329.00,1.1876
1328.00,1.1875
1327.00,1.1874
1326.00,1.1874
1325.00,1.1873
1324.00,1.1872
1323.00,1.1871
1322.00,1.1871
1321.00,1.1870
1320.00,1.1869
1319.00,1.1869
1318.00,1.1869
1317.00,1.1869
1316.00,1.1868
1315.00,1.1868
1314.00,1.1868
1313.00,1.1867
1312.00,1.1866
1311.00,1.1865
1310.00,1.1865
1309.00,1.1865
1308.00,1.1864
1307.00,1.1863
1306.00,1.1863
1305.00,1.1863
1304.00,1.1862
1303.00,1.1861
1302.00,1.1860
1301.00,1.1859
1300.00,1.1858
1299.00,1.1858
1298.00,1.1859
1297.00,1.1859
1296.00,1.1858
1295.00,1.1857
1294.00,1.1856
1293.00,1.1856
1292.00,1.1855
1291.00,1.1855
1290.00,1.1855
1289.00,1.1855
1288.00,1.1854
1287.00,1.1853
1286.00,1.1853
1285.00,1.1853
1284.00,1.1852
1283.00,1.1851
1282.00,1.1851
1281.00,1.1850
1280.00,1.1849
1279.00,1.1849
1278.00,1.1849
1277.00,1.1849
1276.00,1.1848
1275.00,1.1848
1274.00,1.1848
1273.00,1.1847
1272.00,1.1845
1271.00,1.1844
1270.00,1.1844
1269.00,1.1844
1268.00,1.1844
1267.00,1.1844
1266.00,1.1846
1265.00,1.1847
1264.00,1.1847
1263.00,1.1848
1262.00,1.1850
1261.00,1.1851
1260.00,1.1852
1259.00,1.1854
1258.00,1.1855
1257.00,1.1856
1256.00,1.1855
1255.00,1.1854
1254.00,1.1853
1253.00,1.1852
1252.00,1.1850
1251.00,1.1850
1250.00,1.1850
1249.00,1.1851
1248.00,1.1851
1247.00,1.1851
1246.00,1.1851
1245.00,1.1852
1244.00,1.1852
1243.00,1.1853
1242.00,1.1854
1241.00,1.1855
1240.00,1.1854
1239.00,1.1855
1238.00,1.1856
1237.00,1.1856
1236.00,1.1856
1235.00,1.1857
1234.00,1.1858
1233.00,1.1859
1232.00,1.1859
1231.00,1.1859
1230.00,1.1860
1229.00,1.1861
1228.00,1.1860
1227.00,1.1861
1226.00,1.1861
1225.00,1.1862
1224.00,1.1862
1223.00,1.1862
1222.00,1.1862
1221.00,1.1862
1220.00,1.1861
1219.00,1.1861
1218.00,1.1863
1217.00,1.1864
1216.00,1.1864
1215.00,1.1865
1214.00,1.1865
1213.00,1.1865
1212.00,1.1864
1211.00,1.1864
1210.00,1.1865
1209.00,1.1866
1208.00,1.1867
1207.00,1.1868
1206.00,1.1869
1205.00,1.1869
1204.00,1.1869
1203.00,1.1869
1202.00,1.1870
1201.00,1.1870
1200.00,1.1870
1199.00,1.1871
1198.00,1.1873
1197.00,1.1875
1196.00,1.1875
1195.00,1.1875
1194.00,1.1876
1193.00,1.1877
1192.00,1.1877
1191.00,1.1878
1190.00,1.1880
1189.00,1.1881
1188.00,1.1881
1187.00,1.1881
1186.00,1.1882
1185.00,1.1882
1184.00,1.1882
1183.00,1.1882
1182.00,1.1883
1181.00,1.1885
1180.00,1.1887
1179.00,1.1889
1178.00,1.1891
1177.00,1.1891
1176.00,1.1891
1175.00,1.1891
1174.00,1.1892
1173.00,1.1892
1172.00,1.1893
1171.00,1.1894
1170.00,1.1896
1169.00,1.1897
1168.00,1.1898
1167.00,1.1899
1166.00,1.1900
1165.00,1.1901
1164.00,1.1901
1163.00,1.1901
1162.00,1.1903
1161.00,1.1904
1160.00,1.1904
1159.00,1.1905
1158.00,1.1906
1157.00,1.1906
1156.00,1.1906
1155.00,1.1907
1154.00,1.1908
1153.00,1.1909
1152.00,1.1909
1151.00,1.1908
1150.00,1.1909
1149.00,1.1909
1148.00,1.1909
1147.00,1.1910
1146.00,1.1910
1145.00,1.1910
1144.00,1.1910
1143.00,1.1909
1142.00,1.1908
1141.00,1.1907
1140.00,1.1906
1139.00,1.1906
1138.00,1.1906
1137.00,1.1906
1136.00,1.1905
1135.00,1.1906
1134.00,1.1906
1133.00,1.1906
1132.00,1.1905
1131.00,1.1905
1130.00,1.1906
1129.00,1.1906
1128.00,1.1905
1127.00,1.1905
1126.00,1.1905
1125.00,1.1905
1124.00,1.1904
1123.00,1.1903
1122.00,1.1903
1121.00,1.1901
1120.00,1.1899
1119.00,1.1899
1118.00,1.1901
1117.00,1.1902
1116.00,1.1901
1115.00,1.1900
1114.00,1.1899
1113.00,1.1899
1112.00,1.1898
1111.00,1.1896
1110.00,1.1896
1109.00,1.1894
1108.00,1.1893
1107.00,1.1891
1106.00,1.1890
1105.00,1.1889
1104.00,1.1888
1103.00,1.1888
1102.00,1.1887
1101.00,1.1886
1100.00,1.1884
1099.00,1.1882
1098.00,1.1881
1097.00,1.1879
1096.00,1.1877
1095.00,1.1875
1094.00,1.1875
1093.00,1.1873
1092.00,1.1871
1091.00,1.1869
1090.00,1.1867
1089.00,1.1865
1088.00,1.1862
1087.00,1.1860
1086.00,1.1860
1085.00,1.1858
1084.00,1.1856
1083.00,1.1853
1082.00,1.1852
1081.00,1.1850
1080.00,1.1845
1079.00,1.1841
1078.00,1.1839
1077.00,1.1838
1076.00,1.1835
1075.00,1.1832
1074.00,1.1828
1073.00,1.1824
1072.00,1.1820
1071.00,1.1817
1070.00,1.1815
1069.00,1.1811
1068.00,1.1805
1067.00,1.1801
1066.00,1.1798
1065.00,1.1795
1064.00,1.1791
1063.00,1.1788
1062.00,1.1786
1061.00,1.1782
1060.00,1.1777
1059.00,1.1773
1058.00,1.1769
1057.00,1.1763
1056.00,1.1757
1055.00,1.1751
1054.00,1.1747
1053.00,1.1743
1052.00,1.1738
1051.00,1.1737
1050.00,1.1738
1049.00,1.1739
1048.00,1.1735
1047.00,1.1729
1046.00,1.1723
1045.00,1.1716
1044.00,1.1708
1043.00,1.1701
1042.00,1.1696
1041.00,1.1692
1040.00,1.1687
1039.00,1.1685
1038.00,1.1683
1037.00,1.1682
1036.00,1.1679
1035.00,1.1676
1034.00,1.1674
1033.00,1.1669
1032.00,1.1662
1031.00,1.1655
1030.00,1.1649
1029.00,1.1643
1028.00,1.1639
1027.00,1.1635
1026.00,1.1632
1025.00,1.1627
1024.00,1.1620
1023.00,1.1615
1022.00,1.1610
1021.00,1.1605
1020.00,1.1601
1019.00,1.1599
1018.00,1.1598
1017.00,1.1594
1016.00,1.1590
1015.00,1.1586
1014.00,1.1585
1013.00,1.1582
1012.00,1.1575
1011.00,1.1570
1010.00,1.1567
1009.00,1.1564
1008.00,1.1560
1007.00,1.1556
1006.00,1.1552
1005.00,1.1548
1004.00,1.1545
1003.00,1.1545
1002.00,1.1545
1001.00,1.1542
1000.00,1.1536
