Created as New Dataset,Sample 032 By Administrator Date Monday, February 10 2020
cm-1,A
6000.00,1.1484
5999.00,1.1484
5998.00,1.1484
5997.00,1.1484
5996.00,1.1484
5995.00,1.1484
5994.00,1.1485
5993.00,1.1485
5992.00,1.1484
5991.00,1.1484
5990.00,1.1483
5989.00,1.1482
5988.00,1.1482
5987.00,1.1482
5986.00,1.1482
5985.00,1.1482
5984.00,1.1483
5983.00,1.1483
5982.00,1.1484
5981.00,1.1485
5980.00,1.1486
5979.00,1.1487
5978.00,1.1486
5977.00,1.1486
5976.00,1.1486
5975.00,1.1486
5974.00,1.1485
5973.00,1.1484
5972.00,1.1483
5971.00,1.1483
5970.00,1.1482
5969.00,1.1481
5968.00,1.1481
5967.00,1.1481
5966.00,1.1481
5965.00,1.1480
5964.00,1.1480
5963.00,1.1480
5962.00,1.1480
5961.00,1.1480
5960.00,1.1481
5959.00,1.1482
5958.00,1.1483
5957.00,1.1483
5956.00,1.1483
5955.00,1.1482
5954.00,1.1481
5953.00,1.1480
5952.00,1.1480
5951.00,1.1480
5950.00,1.1480
5949.00,1.1480
5948.00,1.1481
5947.00,1.1481
5946.00,1.1481
5945.00,1.1481
5944.00,1.1480
5943.00,1.1480
5942.00,1.1480
5941.00,1.1479
5940.00,1.1478
5939.00,1.1479
5938.00,1.1479
5937.00,1.1480
5936.00,1.1481
5935.00,1.1483
5934.00,1.1484
5933.00,1.1484
5932.00,1.1483
5931.00,1.1483
5930.00,1.1481
5929.00,1.1480
5928.00,1.1479
5927.00,1.1478
5926.00,1.1477
5925.00,1.1477
5924.00,1.1476
5923.00,1.1476
5922.00,1.1476
5921.00,1.1476
5920.00,1.1477
5919.00,1.1477
5918.00,1.1477
5917.00,1.1476
5916.00,1.1475
5915.00,1.1474
5914.00,1.1473
5913.00,1.1472
5912.00,1.1472
5911.00,1.1473
5910.00,1.1475
5909.00,1.1476
5908.00,1.1477
5907.00,1.1477
5906.00,1.1478
5905.00,1.1478
5904.00,1.1479
5903.00,1.1479
5902.00,1.1479
5901.00,1.1479
5900.00,1.1479
5899.00,1.1479
5898.00,1.1478
5897.00,1.1476
5896.00,1.1475
5895.00,1.1474
5894.00,1.1474
5893.00,1.1473
5892.00,1.1473
5891.00,1.1474
5890.00,1.1475
5889.00,1.1475
5888.00,1.1474
5887.00,1.1474
5886.00,1.1474
5885.00,1.1474
5884.00,1.1474
5883.00,1.1474
5882.00,1.1473
5881.00,1.1473
5880.00,1.1472
5879.00,1.1472
5878.00,1.1471
5877.00,1.1470
5876.00,1.1470
5875.00,1.1469
5874.00,1.1469
5873.00,1.1468
5872.00,1.1469
5871.00,1.1470
5870.00,1.1472
5869.00,1.1474
5868.00,1.1475
5867.00,1.1475
5866.00,1.1475
5865.00,1.1473
5864.00,1.1472
5863.00,1.1471
5862.00,1.1470
5861.00,1.1470
5860.00,1.1470
5859.00,1.1469
5858.00,1.1468
5857.00,1.1467
5856.00,1.1467
5855.00,1.1467
5854.00,1.1467
5853.00,1.1468
5852.00,1.1469
5851.00,1.1470
5850.00,1.1470
5849.00,1.1470
5848.00,1.1469
5847.00,1.1468
5846.00,1.1468
5845.00,1.1468
5844.00,1.1468
5843.00,1.1469
5842.00,1.1469
5841.00,1.1469
5840.00,1.1468
5839.00,1.1469
5838.00,1.1468
5837.00,1.1469
5836.00,1.1469
5835.00,1.1470
5834.00,1.1471
5833.00,1.1472
5832.00,1.1472
5831.00,1.1472
5830.00,1.1471
5829.00,1.1471
5828.00,1.1471
5827.00,1.1471
5826.00,1.1471
5825.00,1.1471
5824.00,1.1470
5823.00,1.1470
5822.00,1.1469
5821.00,1.1469
5820.00,1.1469
5819.00,1.1469
5818.00,1.1469
5817.00,1.1469
5816.00,1.1468
5815.00,1.1468
5814.00,1.1468
5813.00,1.1468
5812.00,1.1468
5811.00,1.1469
5810.00,1.1469
5809.00,1.1469
5808.00,1.1468
5807.00,1.1468
5806.00,1.1469
5805.00,1.1469
5804.00,1.1470
5803.00,1.1470
5802.00,1.1469
5801.00,1.1468
5800.00,1.1467
5799.00,1.1467
5798.00,1.1467
5797.00,1.1468
5796.00,1.1469
5795.00,1.1470
5794.00,1.1471
5793.00,1.1471
5792.00,1.1471
5791.00,1.1471
5790.00,1.1470
5789.00,1.1470
5788.00,1.1469
5787.00,1.1469
5786.00,1.1468
5785.00,1.1468
5784.00,1.1467
5783.00,1.1467
5782.00,1.1467
5781.00,1.1467
5780.00,1.1467
5779.00,1.1468
5778.00,1.1468
5777.00,1.1467
5776.00,1.1467
5775.00,1.1466
5774.00,1.1464
5773.00,1.1463
5772.00,1.1463
5771.00,1.1463
5770.00,1.1463
5769.00,1.1465
5768.00,1.1467
5767.00,1.1468
5766.00,1.1469
5765.00,1.1469
5764.00,1.1469
5763.00,1.1469
5762.00,1.1468
5761.00,1.1467
5760.00,1.1466
5759.00,1.1465
5758.00,1.1464
5757.00,1.1464
5756.00,1.1464
5755.00,1.1465
5754.00,1.1464
5753.00,1.1464
5752.00,1.1464
5751.00,1.1464
5750.00,1.1464
5749.00,1.1463
5748.00,1.1462
5747.00,1.1463
5746.00,1.1463
5745.00,1.1462
5744.00,1.1462
5743.00,1.1462
5742.00,1.1462
5741.00,1.1462
5740.00,1.1462
5739.00,1.1463
5738.00,1.1464
5737.00,1.1464
5736.00,1.1465
5735.00,1.1465
5734.00,1.1465
5733.00,1.1465
5732.00,1.1465
5731.00,1.1465
5730.00,1.1465
5729.00,1.1464
5728.00,1.1464
5727.00,1.1464
5726.00,1.1464
5725.00,1.1464
5724.00,1.1464
5723.00,1.1465
5722.00,1.1465
5721.00,1.1464
5720.00,1.1462
5719.00,1.1462
5718.00,1.1462
5717.00,1.1463
5716.00,1.1464
5715.00,1.1465
5714.00,1.1465
5713.00,1.1465
5712.00,1.1465
5711.00,1.1464
5710.00,1.1463
5709.00,1.1462
5708.00,1.1462
5707.00,1.1462
5706.00,1.1462
5705.00,1.1461
5704.00,1.1462
5703.00,1.1462
5702.00,1.1462
5701.00,1.1462
5700.00,1.1462
5699.00,1.1463
5698.00,1.1463
5697.00,1.1463
5696.00,1.1463
5695.00,1.1463
5694.00,1.1463
5693.00,1.1463
5692.00,1.1463
5691.00,1.1464
5690.00,1.1464
5689.00,1.1464
5688.00,1.1464
5687.00,1.1464
5686.00,1.1463
5685.00,1.1462
5684.00,1.1461
5683.00,1.1461
5682.00,1.1460
5681.00,1.1460
5680.00,1.1460
5679.00,1.1461
5678.00,1.1461
5677.00,1.1460
5676.00,1.1459
5675.00,1.1459
5674.00,1.1458
5673.00,1.1457
5672.00,1.1457
5671.00,1.1458
5670.00,1.1459
5669.00,1.1460
5668.00,1.1461
5667.00,1.1461
5666.00,1.1461
5665.00,1.1459
5664.00,1.1458
5663.00,1.1458
5662.00,1.1457
5661.00,1.1458
5660.00,1.1459
5659.00,1.1460
5658.00,1.1462
5657.00,1.1462
5656.00,1.1462
5655.00,1.1461
5654.00,1.1460
5653.00,1.1460
5652.00,1.1459
5651.00,1.1459
5650.00,1.1460
5649.00,1.1460
5648.00,1.1461
5647.00,1.1462
5646.00,1.1462
5645.00,1.1462
5644.00,1.1462
5643.00,1.1462
5642.00,1.1461
5641.00,1.1461
5640.00,1.1461
5639.00,1.1461
5638.00,1.1461
5637.00,1.1461
5636.00,1.1461
5635.00,1.1461
5634.00,1.1461
5633.00,1.1460
5632.00,1.1460
5631.00,1.1460
5630.00,1.1459
5629.00,1.1459
5628.00,1.1459
5627.00,1.1460
5626.00,1.1460
5625.00,1.1461
5624.00,1.1461
5623.00,1.1461
5622.00,1.1461
5621.00,1.1460
5620.00,1.1460
5619.00,1.1460
5618.00,1.1459
5617.00,1.1459
5616.00,1.1459
5615.00,1.1459
5614.00,1.1460
5613.00,1.1460
5612.00,1.1460
5611.00,1.1460
5610.00,1.1460
5609.00,1.1459
5608.00,1.1459
5607.00,1.1459
5606.00,1.1459
5605.00,1.1458
5604.00,1.1458
5603.00,1.1458
5602.00,1.1458
5601.00,1.1458
5600.00,1.1459
5599.00,1.1460
5598.00,1.1460
5597.00,1.1460
5596.00,1.1460
5595.00,1.1459
5594.00,1.1458
5593.00,1.1456
5592.00,1.1455
5591.00,1.1455
5590.00,1.1455
5589.00,1.1456
5588.00,1.1456
5587.00,1.1457
5586.00,1.1458
5585.00,1.1458
5584.00,1.1458
5583.00,1.1458
5582.00,1.1458
5581.00,1.1458
5580.00,1.1457
5579.00,1.1457
5578.00,1.1455
5577.00,1.1454
5576.00,1.1453
5575.00,1.1452
5574.00,1.1453
5573.00,1.1453
5572.00,1.1455
5571.00,1.1457
5570.00,1.1458
5569.00,1.1459
5568.00,1.1459
5567.00,1.1458
5566.00,1.1458
5565.00,1.1456
5564.00,1.1455
5563.00,1.1455
5562.00,1.1455
5561.00,1.1455
5560.00,1.1455
5559.00,1.1455
5558.00,1.1455
5557.00,1.1455
5556.00,1.1456
5555.00,1.1457
5554.00,1.1457
5553.00,1.1456
5552.00,1.1456
5551.00,1.1457
5550.00,1.1457
5549.00,1.1457
5548.00,1.1456
5547.00,1.1456
5546.00,1.1455
5545.00,1.1453
5544.00,1.1452
5543.00,1.1452
5542.00,1.1453
5541.00,1.1454
5540.00,1.1455
5539.00,1.1456
5538.00,1.1456
5537.00,1.1456
5536.00,1.1456
5535.00,1.1455
5534.00,1.1455
5533.00,1.1454
5532.00,1.1454
5531.00,1.1454
5530.00,1.1455
5529.00,1.1454
5528.00,1.1454
5527.00,1.1454
5526.00,1.1454
5525.00,1.1454
5524.00,1.1454
5523.00,1.1454
5522.00,1.1454
5521.00,1.1454
5520.00,1.1455
5519.00,1.1455
5518.00,1.1455
5517.00,1.1454
5516.00,1.1454
5515.00,1.1453
5514.00,1.1453
5513.00,1.1452
5512.00,1.1452
5511.00,1.1452
5510.00,1.1452
5509.00,1.1452
5508.00,1.1451
5507.00,1.1451
5506.00,1.1452
5505.00,1.1452
5504.00,1.1452
5503.00,1.1453
5502.00,1.1453
5501.00,1.1453
5500.00,1.1453
5499.00,1.1453
5498.00,1.1453
5497.00,1.1453
5496.00,1.1452
5495.00,1.1451
5494.00,1.1450
5493.00,1.1449
5492.00,1.1449
5491.00,1.1450
5490.00,1.1450
5489.00,1.1451
5488.00,1.1451
5487.00,1.1451
5486.00,1.1451
5485.00,1.1452
5484.00,1.1452
5483.00,1.1452
5482.00,1.1452
5481.00,1.1451
5480.00,1.1449
5479.00,1.1449
5478.00,1.1449
5477.00,1.1449
5476.00,1.1449
5475.00,1.1450
5474.00,1.1450
5473.00,1.1450
5472.00,1.1449
5471.00,1.1448
5470.00,1.1447
5469.00,1.1446
5468.00,1.1446
5467.00,1.1445
5466.00,1.1444
5465.00,1.1444
5464.00,1.1445
5463.00,1.1445
5462.00,1.1445
5461.00,1.1445
5460.00,1.1446
5459.00,1.1447
5458.00,1.1447
5457.00,1.1447
5456.00,1.1447
5455.00,1.1447
5454.00,1.1446
5453.00,1.1446
5452.00,1.1445
5451.00,1.1444
5450.00,1.1444
5449.00,1.1444
5448.00,1.1445
5447.00,1.1445
5446.00,1.1444
5445.00,1.1444
5444.00,1.1445
5443.00,1.1445
5442.00,1.1445
5441.00,1.1444
5440.00,1.1445
5439.00,1.1445
5438.00,1.1444
5437.00,1.1443
5436.00,1.1441
5435.00,1.1441
5434.00,1.1440
5433.00,1.1441
5432.00,1.1441
5431.00,1.1442
5430.00,1.1442
5429.00,1.1442
5428.00,1.1442
5427.00,1.1443
5426.00,1.1443
5425.00,1.1444
5424.00,1.1445
5423.00,1.1447
5422.00,1.1448
5421.00,1.1448
5420.00,1.1447
5419.00,1.1446
5418.00,1.1444
5417.00,1.1443
5416.00,1.1441
5415.00,1.1439
5414.00,1.1439
5413.00,1.1439
5412.00,1.1439
5411.00,1.1439
5410.00,1.1439
5409.00,1.1440
5408.00,1.1441
5407.00,1.1443
5406.00,1.1444
5405.00,1.1445
5404.00,1.1446
5403.00,1.1447
5402.00,1.1446
5401.00,1.1445
5400.00,1.1444
5399.00,1.1444
5398.00,1.1443
5397.00,1.1443
5396.00,1.1442
5395.00,1.1442
5394.00,1.1441
5393.00,1.1439
5392.00,1.1438
5391.00,1.1439
5390.00,1.1439
5389.00,1.1440
5388.00,1.1440
5387.00,1.1441
5386.00,1.1442
5385.00,1.1442
5384.00,1.1442
5383.00,1.1443
5382.00,1.1442
5381.00,1.1441
5380.00,1.1440
5379.00,1.1440
5378.00,1.1439
5377.00,1.1439
5376.00,1.1439
5375.00,1.1440
5374.00,1.1440
5373.00,1.1440
5372.00,1.1441
5371.00,1.1442
5370.00,1.1443
5369.00,1.1443
5368.00,1.1443
5367.00,1.1444
5366.00,1.1444
5365.00,1.1444
5364.00,1.1444
5363.00,1.1445
5362.00,1.1445
5361.00,1.1445
5360.00,1.1444
5359.00,1.1443
5358.00,1.1442
5357.00,1.1441
5356.00,1.1441
5355.00,1.1441
5354.00,1.1440
5353.00,1.1441
5352.00,1.1441
5351.00,1.1440
5350.00,1.1440
5349.00,1.1439
5348.00,1.1439
5347.00,1.1439
5346.00,1.1439
5345.00,1.1438
5344.00,1.1438
5343.00,1.1438
5342.00,1.1438
5341.00,1.1438
5340.00,1.1437
5339.00,1.1438
5338.00,1.1438
5337.00,1.1439
5336.00,1.1439
5335.00,1.1441
5334.00,1.1442
5333.00,1.1442
5332.00,1.1443
5331.00,1.1444
5330.00,1.1444
5329.00,1.1444
5328.00,1.1443
5327.00,1.1443
5326.00,1.1445
5325.00,1.1446
5324.00,1.1448
5323.00,1.1449
5322.00,1.1450
5321.00,1.1450
5320.00,1.1449
5319.00,1.1448
5318.00,1.1447
5317.00,1.1446
5316.00,1.1446
5315.00,1.1447
5314.00,1.1448
5313.00,1.1449
5312.00,1.1449
5311.00,1.1449
5310.00,1.1448
5309.00,1.1447
5308.00,1.1446
5307.00,1.1445
5306.00,1.1446
5305.00,1.1447
5304.00,1.1447
5303.00,1.1448
5302.00,1.1449
5301.00,1.1450
5300.00,1.1451
5299.00,1.1452
5298.00,1.1452
5297.00,1.1452
5296.00,1.1452
5295.00,1.1451
5294.00,1.1450
5293.00,1.1450
5292.00,1.1450
5291.00,1.1450
5290.00,1.1451
5289.00,1.1452
5288.00,1.1452
5287.00,1.1452
5286.00,1.1452
5285.00,1.1451
5284.00,1.1451
5283.00,1.1451
5282.00,1.1450
5281.00,1.1451
5280.00,1.1451
5279.00,1.1453
5278.00,1.1454
5277.00,1.1455
5276.00,1.1455
5275.00,1.1456
5274.00,1.1456
5273.00,1.1455
5272.00,1.1455
5271.00,1.1454
5270.00,1.1454
5269.00,1.1453
5268.00,1.1452
5267.00,1.1452
5266.00,1.1451
5265.00,1.1451
5264.00,1.1451
5263.00,1.1452
5262.00,1.1453
5261.00,1.1453
5260.00,1.1454
5259.00,1.1456
5258.00,1.1457
5257.00,1.1458
5256.00,1.1459
5255.00,1.1460
5254.00,1.1460
5253.00,1.1460
5252.00,1.1460
5251.00,1.1460
5250.00,1.1460
5249.00,1.1460
5248.00,1.1460
5247.00,1.1461
5246.00,1.1462
5245.00,1.1463
5244.00,1.1464
5243.00,1.1466
5242.00,1.1467
5241.00,1.1467
5240.00,1.1468
5239.00,1.1469
5238.00,1.1469
5237.00,1.1469
5236.00,1.1470
5235.00,1.1470
5234.00,1.1470
5233.00,1.1470
5232.00,1.1470
5231.00,1.1470
5230.00,1.1470
5229.00,1.1471
5228.00,1.1471
5227.00,1.1472
5226.00,1.1472
5225.00,1.1473
5224.00,1.1473
5223.00,1.1474
5222.00,1.1475
5221.00,1.1476
5220.00,1.1477
5219.00,1.1478
5218.00,1.1479
5217.00,1.1480
5216.00,1.1481
5215.00,1.1481
5214.00,1.1481
5213.00,1.1481
5212.00,1.1481
5211.00,1.1480
5210.00,1.1480
5209.00,1.1480
5208.00,1.1480
5207.00,1.1480
5206.00,1.1480
5205.00,1.1481
5204.00,1.1482
5203.00,1.1484
5202.00,1.1485
5201.00,1.1486
5200.00,1.1487
5199.00,1.1488
5198.00,1.1489
5197.00,1.1490
5196.00,1.1491
5195.00,1.1491
5194.00,1.1491
5193.00,1.1491
5192.00,1.1491
5191.00,1.1492
5190.00,1.1493
5189.00,1.1494
5188.00,1.1495
5187.00,1.1496
5186.00,1.1495
5185.00,1.1495
5184.00,1.1495
5183.00,1.1495
5182.00,1.1495
5181.00,1.1496
5180.00,1.1498
5179.00,1.1499
5178.00,1.1500
5177.00,1.1501
5176.00,1.1501
5175.00,1.1502
5174.00,1.1503
5173.00,1.1504
5172.00,1.1505
5171.00,1.1505
5170.00,1.1505
5169.00,1.1504
5168.00,1.1504
5167.00,1.1504
5166.00,1.1505
5165.00,1.1506
5164.00,1.1507
5163.00,1.1508
5162.00,1.1510
5161.00,1.1510
5160.00,1.1511
5159.00,1.1512
5158.00,1.1513
5157.00,1.1514
5156.00,1.1514
5155.00,1.1514
5154.00,1.1514
5153.00,1.1514
5152.00,1.1514
5151.00,1.1515
5150.00,1.1515
5149.00,1.1516
5148.00,1.1516
5147.00,1.1517
5146.00,1.1517
5145.00,1.1517
5144.00,1.1517
5143.00,1.1518
5142.00,1.1518
5141.00,1.1518
5140.00,1.1519
5139.00,1.1519
5138.00,1.1519
5137.00,1.1520
5136.00,1.1520
5135.00,1.1521
5134.00,1.1522
5133.00,1.1522
5132.00,1.1523
5131.00,1.1524
5130.00,1.1524
5129.00,1.1524
5128.00,1.1524
5127.00,1.1525
5126.00,1.1525
5125.00,1.1526
5124.00,1.1526
5123.00,1.1527
5122.00,1.1527
5121.00,1.1527
5120.00,1.1527
5119.00,1.1527
5118.00,1.1527
5117.00,1.1527
5116.00,1.1527
5115.00,1.1527
5114.00,1.1526
5113.00,1.1526
5112.00,1.1526
5111.00,1.1527
5110.00,1.1528
5109.00,1.1529
5108.00,1.1529
5107.00,1.1530
5106.00,1.1529
5105.00,1.1529
5104.00,1.1529
5103.00,1.1529
5102.00,1.1529
5101.00,1.1529
5100.00,1.1529
5099.00,1.1529
5098.00,1.1528
5097.00,1.1528
5096.00,1.1528
5095.00,1.1528
5094.00,1.1529
5093.00,1.1529
5092.00,1.1530
5091.00,1.1530
5090.00,1.1530
5089.00,1.1529
5088.00,1.1528
5087.00,1.1528
5086.00,1.1528
5085.00,1.1529
5084.00,1.1529
5083.00,1.1530
5082.00,1.1531
5081.00,1.1531
5080.00,1.1530
5079.00,1.1530
5078.00,1.1530
5077.00,1.1530
5076.00,1.1531
5075.00,1.1532
5074.00,1.1532
5073.00,1.1533
5072.00,1.1533
5071.00,1.1533
5070.00,1.1532
5069.00,1.1532
5068.00,1.1532
5067.00,1.1533
5066.00,1.1533
5065.00,1.1533
5064.00,1.1534
5063.00,1.1534
5062.00,1.1533
5061.00,1.1533
5060.00,1.1533
5059.00,1.1532
5058.00,1.1532
5057.00,1.1532
5056.00,1.1532
5055.00,1.1533
5054.00,1.1533
5053.00,1.1533
5052.00,1.1534
5051.00,1.1534
5050.00,1.1535
5049.00,1.1535
5048.00,1.1535
5047.00,1.1536
5046.00,1.1536
5045.00,1.1536
5044.00,1.1536
5043.00,1.1535
5042.00,1.1535
5041.00,1.1536
5040.00,1.1536
5039.00,1.1536
5038.00,1.1535
5037.00,1.1535
5036.00,1.1535
5035.00,1.1535
5034.00,1.1535
5033.00,1.1535
5032.00,1.1534
5031.00,1.1534
5030.00,1.1533
5029.00,1.1533
5028.00,1.1533
5027.00,1.1533
5026.00,1.1534
5025.00,1.1535
5024.00,1.1535
5023.00,1.1535
5022.00,1.1535
5021.00,1.1535
5020.00,1.1535
5019.00,1.1534
5018.00,1.1533
5017.00,1.1533
5016.00,1.1533
5015.00,1.1533
5014.00,1.1533
5013.00,1.1533
5012.00,1.1533
5011.00,1.1533
5010.00,1.1533
5009.00,1.1533
5008.00,1.1532
5007.00,1.1532
5006.00,1.1531
5005.00,1.1531
5004.00,1.1531
5003.00,1.1531
5002.00,1.1531
5001.00,1.1530
5000.00,1.1530
4999.00,1.1530
4998.00,1.1530
4997.00,1.1530
4996.00,1.1532
4995.00,1.1533
4994.00,1.1534
4993.00,1.1534
4992.00,1.1533
4991.00,1.1533
4990.00,1.1532
4989.00,1.1531
4988.00,1.1530
4987.00,1.1530
4986.00,1.1530
4985.00,1.1530
4984.00,1.1530
4983.00,1.1531
4982.00,1.1531
4981.00,1.1531
4980.00,1.1531
4979.00,1.1530
4978.00,1.1530
4977.00,1.1529
4976.00,1.1529
4975.00,1.1528
4974.00,1.1528
4973.00,1.1528
4972.00,1.1528
4971.00,1.1528
4970.00,1.1529
4969.00,1.1530
4968.00,1.1530
4967.00,1.1531
4966.00,1.1530
4965.00,1.1530
4964.00,1.1530
4963.00,1.1530
4962.00,1.1530
4961.00,1.1530
4960.00,1.1530
4959.00,1.1530
4958.00,1.1529
4957.00,1.1528
4956.00,1.1528
4955.00,1.1528
4954.00,1.1529
4953.00,1.1529
4952.00,1.1529
4951.00,1.1530
4950.00,1.1530
4949.00,1.1529
4948.00,1.1529
4947.00,1.1528
4946.00,1.1528
4945.00,1.1528
4944.00,1.1527
4943.00,1.1527
4942.00,1.1527
4941.00,1.1527
4940.00,1.1527
4939.00,1.1527
4938.00,1.1527
4937.00,1.1526
4936.00,1.1526
4935.00,1.1526
4934.00,1.1526
4933.00,1.1526
4932.00,1.1525
4931.00,1.1525
4930.00,1.1524
4929.00,1.1524
4928.00,1.1524
4927.00,1.1524
4926.00,1.1525
4925.00,1.1525
4924.00,1.1525
4923.00,1.1525
4922.00,1.1524
4921.00,1.1524
4920.00,1.1523
4919.00,1.1522
4918.00,1.1522
4917.00,1.1522
4916.00,1.1522
4915.00,1.1522
4914.00,1.1522
4913.00,1.1522
4912.00,1.1522
4911.00,1.1521
4910.00,1.1520
4909.00,1.1520
4908.00,1.1519
4907.00,1.1519
4906.00,1.1519
4905.00,1.1519
4904.00,1.1519
4903.00,1.1520
4902.00,1.1520
4901.00,1.1520
4900.00,1.1520
4899.00,1.1520
4898.00,1.1520
4897.00,1.1519
4896.00,1.1518
4895.00,1.1517
4894.00,1.1517
4893.00,1.1516
4892.00,1.1517
4891.00,1.1517
4890.00,1.1517
4889.00,1.1517
4888.00,1.1517
4887.00,1.1517
4886.00,1.1517
4885.00,1.1517
4884.00,1.1517
4883.00,1.1517
4882.00,1.1516
4881.00,1.1515
4880.00,1.1515
4879.00,1.1515
4878.00,1.1515
4877.00,1.1514
4876.00,1.1514
4875.00,1.1513
4874.00,1.1514
4873.00,1.1514
4872.00,1.1515
4871.00,1.1515
4870.00,1.1515
4869.00,1.1515
4868.00,1.1514
4867.00,1.1513
4866.00,1.1512
4865.00,1.1512
4864.00,1.1511
4863.00,1.1511
4862.00,1.1511
4861.00,1.1511
4860.00,1.1511
4859.00,1.1511
4858.00,1.1511
4857.00,1.1510
4856.00,1.1510
4855.00,1.1510
4854.00,1.1510
4853.00,1.1510
4852.00,1.1510
4851.00,1.1509
4850.00,1.1509
4849.00,1.1508
4848.00,1.1508
4847.00,1.1508
4846.00,1.1508
4845.00,1.1508
4844.00,1.1507
4843.00,1.1507
4842.00,1.1507
4841.00,1.1507
4840.00,1.1507
4839.00,1.1506
4838.00,1.1506
4837.00,1.1505
4836.00,1.1505
4835.00,1.1505
4834.00,1.1505
4833.00,1.1504
4832.00,1.1504
4831.00,1.1504
4830.00,1.1504
4829.00,1.1505
4828.00,1.1505
4827.00,1.1505
4826.00,1.1504
4825.00,1.1504
4824.00,1.1503
4823.00,1.1502
4822.00,1.1502
4821.00,1.1501
4820.00,1.1501
4819.00,1.1500
4818.00,1.1500
4817.00,1.1499
4816.00,1.1498
4815.00,1.1498
4814.00,1.1497
4813.00,1.1497
4812.00,1.1496
4811.00,1.1496
4810.00,1.1497
4809.00,1.1497
4808.00,1.1497
4807.00,1.1497
4806.00,1.1496
4805.00,1.1496
4804.00,1.1495
4803.00,1.1494
4802.00,1.1494
4801.00,1.1494
4800.00,1.1494
4799.00,1.1494
4798.00,1.1493
4797.00,1.1493
4796.00,1.1493
4795.00,1.1493
4794.00,1.1492
4793.00,1.1492
4792.00,1.1491
4791.00,1.1491
4790.00,1.1490
4789.00,1.1490
4788.00,1.1490
4787.00,1.1490
4786.00,1.1490
4785.00,1.1490
4784.00,1.1491
4783.00,1.1490
4782.00,1.1490
4781.00,1.1489
4780.00,1.1488
4779.00,1.1488
4778.00,1.1487
4777.00,1.1487
4776.00,1.1486
4775.00,1.1486
4774.00,1.1486
4773.00,1.1486
4772.00,1.1485
4771.00,1.1484
4770.00,1.1484
4769.00,1.1483
4768.00,1.1483
4767.00,1.1483
4766.00,1.1483
4765.00,1.1483
4764.00,1.1482
4763.00,1.1481
4762.00,1.1481
4761.00,1.1480
4760.00,1.1479
4759.00,1.1479
4758.00,1.1478
4757.00,1.1477
4756.00,1.1477
4755.00,1.1477
4754.00,1.1476
4753.00,1.1476
4752.00,1.1475
4751.00,1.1474
4750.00,1.1473
4749.00,1.1472
4748.00,1.1471
4747.00,1.1471
4746.00,1.1470
4745.00,1.1468
4744.00,1.1467
4743.00,1.1466
4742.00,1.1465
4741.00,1.1465
4740.00,1.1464
4739.00,1.1464
4738.00,1.1464
4737.00,1.1463
4736.00,1.1462
4735.00,1.1462
4734.00,1.1461
4733.00,1.1460
4732.00,1.1460
4731.00,1.1459
4730.00,1.1459
4729.00,1.1458
4728.00,1.1458
4727.00,1.1458
4726.00,1.1458
4725.00,1.1458
4724.00,1.1458
4723.00,1.1458
4722.00,1.1458
4721.00,1.1457
4720.00,1.1456
4719.00,1.1456
4718.00,1.1455
4717.00,1.1455
4716.00,1.1455
4715.00,1.1455
4714.00,1.1455
4713.00,1.1455
4712.00,1.1455
4711.00,1.1455
4710.00,1.1455
4709.00,1.1454
4708.00,1.1455
4707.00,1.1455
4706.00,1.1456
4705.00,1.1457
4704.00,1.1457
4703.00,1.1458
4702.00,1.1458
4701.00,1.1458
4700.00,1.1458
4699.00,1.1458
4698.00,1.1458
4697.00,1.1457
4696.00,1.1457
4695.00,1.1456
4694.00,1.1455
4693.00,1.1454
4692.00,1.1453
4691.00,1.1452
4690.00,1.1452
4689.00,1.1451
4688.00,1.1451
4687.00,1.1450
4686.00,1.1450
4685.00,1.1450
4684.00,1.1449
4683.00,1.1448
4682.00,1.1448
4681.00,1.1448
4680.00,1.1448
4679.00,1.1448
4678.00,1.1448
4677.00,1.1448
4676.00,1.1447
4675.00,1.1448
4674.00,1.1448
4673.00,1.1448
4672.00,1.1448
4671.00,1.1447
4670.00,1.1447
4669.00,1.1447
4668.00,1.1448
4667.00,1.1448
4666.00,1.1449
4665.00,1.1449
4664.00,1.1449
4663.00,1.1448
4662.00,1.1448
4661.00,1.1448
4660.00,1.1447
4659.00,1.1446
4658.00,1.1446
4657.00,1.1445
4656.00,1.1445
4655.00,1.1445
4654.00,1.1445
4653.00,1.1445
4652.00,1.1445
4651.00,1.1446
4650.00,1.1447
4649.00,1.1447
4648.00,1.1447
4647.00,1.1447
4646.00,1.1447
4645.00,1.1447
4644.00,1.1447
4643.00,1.1447
4642.00,1.1446
4641.00,1.1446
4640.00,1.1446
4639.00,1.1446
4638.00,1.1446
4637.00,1.1446
4636.00,1.1446
4635.00,1.1446
4634.00,1.1447
4633.00,1.1447
4632.00,1.1447
4631.00,1.1447
4630.00,1.1446
4629.00,1.1446
4628.00,1.1445
4627.00,1.1445
4626.00,1.1445
4625.00,1.1445
4624.00,1.1445
4623.00,1.1445
4622.00,1.1445
4621.00,1.1444
4620.00,1.1444
4619.00,1.1444
4618.00,1.1444
4617.00,1.1445
4616.00,1.1445
4615.00,1.1446
4614.00,1.1447
4613.00,1.1447
4612.00,1.1447
4611.00,1.1446
4610.00,1.1446
4609.00,1.1446
4608.00,1.1446
4607.00,1.1446
4606.00,1.1446
4605.00,1.1446
4604.00,1.1446
4603.00,1.1446
4602.00,1.1446
4601.00,1.1446
4600.00,1.1445
4599.00,1.1445
4598.00,1.1444
4597.00,1.1444
4596.00,1.1444
4595.00,1.1444
4594.00,1.1444
4593.00,1.1444
4592.00,1.1444
4591.00,1.1444
4590.00,1.1444
4589.00,1.1444
4588.00,1.1444
4587.00,1.1444
4586.00,1.1444
4585.00,1.1444
4584.00,1.1444
4583.00,1.1444
4582.00,1.1444
4581.00,1.1444
4580.00,1.1444
4579.00,1.1444
4578.00,1.1444
4577.00,1.1444
4576.00,1.1444
4575.00,1.1443
4574.00,1.1443
4573.00,1.1443
4572.00,1.1443
4571.00,1.1443
4570.00,1.1443
4569.00,1.1443
4568.00,1.1443
4567.00,1.1443
4566.00,1.1443
4565.00,1.1443
4564.00,1.1443
4563.00,1.1444
4562.00,1.1444
4561.00,1.1443
4560.00,1.1443
4559.00,1.1442
4558.00,1.1442
4557.00,1.1441
4556.00,1.1441
4555.00,1.1441
4554.00,1.1441
4553.00,1.1441
4552.00,1.1442
4551.00,1.1443
4550.00,1.1443
4549.00,1.1443
4548.00,1.1443
4547.00,1.1443
4546.00,1.1442
4545.00,1.1442
4544.00,1.1441
4543.00,1.1441
4542.00,1.1441
4541.00,1.1441
4540.00,1.1441
4539.00,1.1441
4538.00,1.1441
4537.00,1.1441
4536.00,1.1441
4535.00,1.1441
4534.00,1.1440
4533.00,1.1439
4532.00,1.1438
4531.00,1.1438
4530.00,1.1438
4529.00,1.1439
4528.00,1.1439
4527.00,1.1440
4526.00,1.1440
4525.00,1.1440
4524.00,1.1440
4523.00,1.1440
4522.00,1.1440
4521.00,1.1439
4520.00,1.1439
4519.00,1.1439
4518.00,1.1438
4517.00,1.1438
4516.00,1.1438
4515.00,1.1438
4514.00,1.1438
4513.00,1.1438
4512.00,1.1438
4511.00,1.1438
4510.00,1.1438
4509.00,1.1438
4508.00,1.1438
4507.00,1.1438
4506.00,1.1438
4505.00,1.1438
4504.00,1.1438
4503.00,1.1438
4502.00,1.1438
4501.00,1.1437
4500.00,1.1437
4499.00,1.1436
4498.00,1.1436
4497.00,1.1436
4496.00,1.1436
4495.00,1.1436
4494.00,1.1436
4493.00,1.1437
4492.00,1.1437
4491.00,1.1437
4490.00,1.1437
4489.00,1.1437
4488.00,1.1436
4487.00,1.1436
4486.00,1.1436
4485.00,1.1435
4484.00,1.1435
4483.00,1.1436
4482.00,1.1436
4481.00,1.1436
4480.00,1.1436
4479.00,1.1436
4478.00,1.1436
4477.00,1.1437
4476.00,1.1437
4475.00,1.1437
4474.00,1.1437
4473.00,1.1437
4472.00,1.1436
4471.00,1.1436
4470.00,1.1435
4469.00,1.1435
4468.00,1.1435
4467.00,1.1436
4466.00,1.1436
4465.00,1.1437
4464.00,1.1437
4463.00,1.1437
4462.00,1.1437
4461.00,1.1437
4460.00,1.1437
4459.00,1.1437
4458.00,1.1437
4457.00,1.1436
4456.00,1.1436
4455.00,1.1436
4454.00,1.1436
4453.00,1.1436
4452.00,1.1435
4451.00,1.1435
4450.00,1.1435
4449.00,1.1435
4448.00,1.1436
4447.00,1.1436
4446.00,1.1436
4445.00,1.1436
4444.00,1.1436
4443.00,1.1436
4442.00,1.1435
4441.00,1.1435
4440.00,1.1435
4439.00,1.1435
4438.00,1.1435
4437.00,1.1435
4436.00,1.1434
4435.00,1.1434
4434.00,1.1433
4433.00,1.1433
4432.00,1.1433
4431.00,1.1434
4430.00,1.1434
4429.00,1.1434
4428.00,1.1434
4427.00,1.1434
4426.00,1.1434
4425.00,1.1434
4424.00,1.1434
4423.00,1.1435
4422.00,1.1435
4421.00,1.1435
4420.00,1.1434
4419.00,1.1434
4418.00,1.1433
4417.00,1.1433
4416.00,1.1433
4415.00,1.1433
4414.00,1.1433
4413.00,1.1434
4412.00,1.1434
4411.00,1.1434
4410.00,1.1434
4409.00,1.1434
4408.00,1.1434
4407.00,1.1434
4406.00,1.1434
4405.00,1.1434
4404.00,1.1434
4403.00,1.1434
4402.00,1.1434
4401.00,1.1434
4400.00,1.1434
4399.00,1.1434
4398.00,1.1434
4397.00,1.1434
4396.00,1.1434
4395.00,1.1434
4394.00,1.1434
4393.00,1.1434
4392.00,1.1434
4391.00,1.1434
4390.00,1.1434
4389.00,1.1434
4388.00,1.1435
4387.00,1.1435
4386.00,1.1435
4385.00,1.1435
4384.00,1.1435
4383.00,1.1435
4382.00,1.1435
4381.00,1.1435
4380.00,1.1435
4379.00,1.1435
4378.00,1.1435
4377.00,1.1435
4376.00,1.1436
4375.00,1.1436
4374.00,1.1436
4373.00,1.1437
4372.00,1.1437
4371.00,1.1437
4370.00,1.1438
4369.00,1.1438
4368.00,1.1438
4367.00,1.1438
4366.00,1.1438
4365.00,1.1438
4364.00,1.1438
4363.00,1.1438
4362.00,1.1438
4361.00,1.1438
4360.00,1.1437
4359.00,1.1437
4358.00,1.1437
4357.00,1.1437
4356.00,1.1438
4355.00,1.1438
4354.00,1.1438
4353.00,1.1438
4352.00,1.1438
4351.00,1.1438
4350.00,1.1437
4349.00,1.1437
4348.00,1.1437
4347.00,1.1437
4346.00,1.1438
4345.00,1.1438
4344.00,1.1439
4343.00,1.1439
4342.00,1.1439
4341.00,1.1439
4340.00,1.1439
4339.00,1.1439
4338.00,1.1439
4337.00,1.1439
4336.00,1.1439
4335.00,1.1438
4334.00,1.1438
4333.00,1.1438
4332.00,1.1438
4331.00,1.1439
4330.00,1.1439
4329.00,1.1439
4328.00,1.1439
4327.00,1.1440
4326.00,1.1440
4325.00,1.1440
4324.00,1.1440
4323.00,1.1440
4322.00,1.1440
4321.00,1.1440
4320.00,1.1440
4319.00,1.1440
4318.00,1.1441
4317.00,1.1441
4316.00,1.1441
4315.00,1.1441
4314.00,1.1441
4313.00,1.1441
4312.00,1.1441
4311.00,1.1441
4310.00,1.1441
4309.00,1.1441
4308.00,1.1441
4307.00,1.1441
4306.00,1.1441
4305.00,1.1441
4304.00,1.1441
4303.00,1.1441
4302.00,1.1441
4301.00,1.1441
4300.00,1.1441
4299.00,1.1441
4298.00,1.1441
4297.00,1.1441
4296.00,1.1442
4295.00,1.1443
4294.00,1.1443
4293.00,1.1443
4292.00,1.1443
4291.00,1.1443
4290.00,1.1443
4289.00,1.1442
4288.00,1.1443
4287.00,1.1443
4286.00,1.1443
4285.00,1.1444
4284.00,1.1444
4283.00,1.1444
4282.00,1.1444
4281.00,1.1444
4280.00,1.1445
4279.00,1.1445
4278.00,1.1445
4277.00,1.1445
4276.00,1.1445
4275.00,1.1445
4274.00,1.1445
4273.00,1.1445
4272.00,1.1446
4271.00,1.1446
4270.00,1.1447
4269.00,1.1447
4268.00,1.1447
4267.00,1.1447
4266.00,1.1446
4265.00,1.1446
4264.00,1.1446
4263.00,1.1446
4262.00,1.1447
4261.00,1.1447
4260.00,1.1447
4259.00,1.1447
4258.00,1.1447
4257.00,1.1447
4256.00,1.1447
4255.00,1.1447
4254.00,1.1447
4253.00,1.1447
4252.00,1.1447
4251.00,1.1447
4250.00,1.1447
4249.00,1.1447
4248.00,1.1446
4247.00,1.1446
4246.00,1.1446
4245.00,1.1447
4244.00,1.1447
4243.00,1.1447
4242.00,1.1447
4241.00,1.1447
4240.00,1.1447
4239.00,1.1448
4238.00,1.1448
4237.00,1.1448
4236.00,1.1448
4235.00,1.1447
4234.00,1.1447
4233.00,1.1446
4232.00,1.1446
4231.00,1.1446
4230.00,1.1446
4229.00,1.1446
4228.00,1.1447
4227.00,1.1447
4226.00,1.1447
4225.00,1.1447
4224.00,1.1447
4223.00,1.1447
4222.00,1.1447
4221.00,1.1447
4220.00,1.1446
4219.00,1.1446
4218.00,1.1446
4217.00,1.1447
4216.00,1.1447
4215.00,1.1447
4214.00,1.1447
4213.00,1.1447
4212.00,1.1446
4211.00,1.1446
4210.00,1.1446
4209.00,1.1445
4208.00,1.1445
4207.00,1.1445
4206.00,1.1445
4205.00,1.1445
4204.00,1.1446
4203.00,1.1446
4202.00,1.1446
4201.00,1.1446
4200.00,1.1446
4199.00,1.1446
4198.00,1.1446
4197.00,1.1446
4196.00,1.1446
4195.00,1.1446
4194.00,1.1446
4193.00,1.1446
4192.00,1.1446
4191.00,1.1446
4190.00,1.1446
4189.00,1.1446
4188.00,1.1446
4187.00,1.1446
4186.00,1.1446
4185.00,1.1446
4184.00,1.1446
4183.00,1.1447
4182.00,1.1447
4181.00,1.1447
4180.00,1.1447
4179.00,1.1447
4178.00,1.1447
4177.00,1.1447
4176.00,1.1447
4175.00,1.1447
4174.00,1.1447
4173.00,1.1446
4172.00,1.1446
4171.00,1.1447
4170.00,1.1447
4169.00,1.1447
4168.00,1.1447
4167.00,1.1447
4166.00,1.1446
4165.00,1.1446
4164.00,1.1445
4163.00,1.1445
4162.00,1.1445
4161.00,1.1445
4160.00,1.1444
4159.00,1.1444
4158.00,1.1444
4157.00,1.1445
4156.00,1.1445
4155.00,1.1445
4154.00,1.1445
4153.00,1.1444
4152.00,1.1444
4151.00,1.1444
4150.00,1.1444
4149.00,1.1444
4148.00,1.1443
4147.00,1.1443
4146.00,1.1443
4145.00,1.1443
4144.00,1.1443
4143.00,1.1444
4142.00,1.1444
4141.00,1.1443
4140.00,1.1444
4139.00,1.1444
4138.00,1.1443
4137.00,1.1443
4136.00,1.1442
4135.00,1.1442
4134.00,1.1442
4133.00,1.1442
4132.00,1.1442
4131.00,1.1442
4130.00,1.1441
4129.00,1.1441
4128.00,1.1441
4127.00,1.1440
4126.00,1.1440
4125.00,1.1440
4124.00,1.1441
4123.00,1.1441
4122.00,1.1441
4121.00,1.1441
4120.00,1.1440
4119.00,1.1440
4118.00,1.1440
4117.00,1.1440
4116.00,1.1440
4115.00,1.1440
4114.00,1.1440
4113.00,1.1439
4112.00,1.1439
4111.00,1.1439
4110.00,1.1439
4109.00,1.1439
4108.00,1.1439
4107.00,1.1439
4106.00,1.1439
4105.00,1.1439
4104.00,1.1440
4103.00,1.1440
4102.00,1.1440
4101.00,1.1439
4100.00,1.1439
4099.00,1.1439
4098.00,1.1438
4097.00,1.1438
4096.00,1.1438
4095.00,1.1438
4094.00,1.1438
4093.00,1.1438
4092.00,1.1438
4091.00,1.1438
4090.00,1.1439
4089.00,1.1438
4088.00,1.1438
4087.00,1.1438
4086.00,1.1437
4085.00,1.1437
4084.00,1.1437
4083.00,1.1437
4082.00,1.1437
4081.00,1.1437
4080.00,1.1437
4079.00,1.1437
4078.00,1.1437
4077.00,1.1437
4076.00,1.1437
4075.00,1.1437
4074.00,1.1437
4073.00,1.1437
4072.00,1.1437
4071.00,1.1437
4070.00,1.1437
4069.00,1.1436
4068.00,1.1436
4067.00,1.1436
4066.00,1.1436
4065.00,1.1436
4064.00,1.1436
4063.00,1.1436
4062.00,1.1435
4061.00,1.1435
4060.00,1.1435
4059.00,1.1434
4058.00,1.1434
4057.00,1.1434
4056.00,1.1434
4055.00,1.1434
4054.00,1.1434
4053.00,1.1434
4052.00,1.1433
4051.00,1.1433
4050.00,1.1433
4049.00,1.1433
4048.00,1.1433
4047.00,1.1433
4046.00,1.1433
4045.00,1.1433
4044.00,1.1433
4043.00,1.1432
4042.00,1.1432
4041.00,1.1432
4040.00,1.1432
4039.00,1.1432
4038.00,1.1432
4037.00,1.1431
4036.00,1.1431
4035.00,1.1430
4034.00,1.1430
4033.00,1.1430
4032.00,1.1430
4031.00,1.1430
4030.00,1.1430
4029.00,1.1430
4028.00,1.1430
4027.00,1.1430
4026.00,1.1430
4025.00,1.1430
4024.00,1.1429
4023.00,1.1429
4022.00,1.1429
4021.00,1.1429
4020.00,1.1429
4019.00,1.1429
4018.00,1.1429
4017.00,1.1428
4016.00,1.1428
4015.00,1.1427
4014.00,1.1427
4013.00,1.1426
4012.00,1.1426
4011.00,1.1426
4010.00,1.1427
4009.00,1.1426
4008.00,1.1426
4007.00,1.1425
4006.00,1.1425
4005.00,1.1424
4004.00,1.1424
4003.00,1.1424
4002.00,1.1424
4001.00,1.1424
4000.00,1.1424
3999.00,1.1424
3998.00,1.1424
3997.00,1.1424
3996.00,1.1423
3995.00,1.1423
3994.00,1.1423
3993.00,1.1423
3992.00,1.1423
3991.00,1.1423
3990.00,1.1422
3989.00,1.1422
3988.00,1.1422
3987.00,1.1421
3986.00,1.1421
3985.00,1.1421
3984.00,1.1421
3983.00,1.1421
3982.00,1.1420
3981.00,1.1420
3980.00,1.1420
3979.00,1.1420
3978.00,1.1420
3977.00,1.1420
3976.00,1.1420
3975.00,1.1420
3974.00,1.1419
3973.00,1.1418
3972.00,1.1418
3971.00,1.1417
3970.00,1.1417
3969.00,1.1416
3968.00,1.1416
3967.00,1.1415
3966.00,1.1415
3965.00,1.1414
3964.00,1.1414
3963.00,1.1413
3962.00,1.1413
3961.00,1.1412
3960.00,1.1412
3959.00,1.1411
3958.00,1.1411
3957.00,1.1410
3956.00,1.1410
3955.00,1.1410
3954.00,1.1409
3953.00,1.1409
3952.00,1.1409
3951.00,1.1409
3950.00,1.1409
3949.00,1.1408
3948.00,1.1407
3947.00,1.1406
3946.00,1.1406
3945.00,1.1406
3944.00,1.1405
3943.00,1.1405
3942.00,1.1404
3941.00,1.1403
3940.00,1.1402
3939.00,1.1401
3938.00,1.1400
3937.00,1.1400
3936.00,1.1399
3935.00,1.1399
3934.00,1.1398
3933.00,1.1397
3932.00,1.1397
3931.00,1.1397
3930.00,1.1396
3929.00,1.1396
3928.00,1.1396
3927.00,1.1395
3926.00,1.1394
3925.00,1.1393
3924.00,1.1393
3923.00,1.1392
3922.00,1.1391
3921.00,1.1390
3920.00,1.1389
3919.00,1.1388
3918.00,1.1386
3917.00,1.1385
3916.00,1.1385
3915.00,1.1385
3914.00,1.1384
3913.00,1.1384
3912.00,1.1383
3911.00,1.1382
3910.00,1.1382
3909.00,1.1382
3908.00,1.1382
3907.00,1.1383
3906.00,1.1382
3905.00,1.1381
3904.00,1.1380
3903.00,1.1378
3902.00,1.1376
3901.00,1.1374
3900.00,1.1373
3899.00,1.1372
3898.00,1.1373
3897.00,1.1373
3896.00,1.1373
3895.00,1.1373
3894.00,1.1374
3893.00,1.1374
3892.00,1.1372
3891.00,1.1371
3890.00,1.1370
3889.00,1.1369
3888.00,1.1366
3887.00,1.1363
3886.00,1.1362
3885.00,1.1364
3884.00,1.1367
3883.00,1.1368
3882.00,1.1367
3881.00,1.1365
3880.00,1.1364
3879.00,1.1364
3878.00,1.1363
3877.00,1.1362
3876.00,1.1360
3875.00,1.1359
3874.00,1.1360
3873.00,1.1361
3872.00,1.1359
3871.00,1.1356
3870.00,1.1354
3869.00,1.1354
3868.00,1.1356
3867.00,1.1355
3866.00,1.1354
3865.00,1.1354
3864.00,1.1354
3863.00,1.1353
3862.00,1.1351
3861.00,1.1350
3860.00,1.1349
3859.00,1.1347
3858.00,1.1346
3857.00,1.1345
3856.00,1.1346
3855.00,1.1346
3854.00,1.1344
3853.00,1.1342
3852.00,1.1341
3851.00,1.1341
3850.00,1.1340
3849.00,1.1340
3848.00,1.1340
3847.00,1.1340
3846.00,1.1340
3845.00,1.1340
3844.00,1.1340
3843.00,1.1340
3842.00,1.1339
3841.00,1.1338
3840.00,1.1337
3839.00,1.1337
3838.00,1.1338
3837.00,1.1338
3836.00,1.1337
3835.00,1.1336
3834.00,1.1334
3833.00,1.1332
3832.00,1.1331
3831.00,1.1331
3830.00,1.1331
3829.00,1.1331
3828.00,1.1330
3827.00,1.1329
3826.00,1.1329
3825.00,1.1329
3824.00,1.1328
3823.00,1.1327
3822.00,1.1324
3821.00,1.1323
3820.00,1.1323
3819.00,1.1323
3818.00,1.1321
3817.00,1.1319
3816.00,1.1319
3815.00,1.1321
3814.00,1.1322
3813.00,1.1321
3812.00,1.1320
3811.00,1.1319
3810.00,1.1320
3809.00,1.1319
3808.00,1.1318
3807.00,1.1317
3806.00,1.1317
3805.00,1.1316
3804.00,1.1315
3803.00,1.1313
3802.00,1.1313
3801.00,1.1316
3800.00,1.1319
3799.00,1.1319
3798.00,1.1317
3797.00,1.1315
3796.00,1.1314
3795.00,1.1314
3794.00,1.1314
3793.00,1.1314
3792.00,1.1313
3791.00,1.1314
3790.00,1.1314
3789.00,1.1314
3788.00,1.1314
3787.00,1.1313
3786.00,1.1312
3785.00,1.1312
3784.00,1.1312
3783.00,1.1312
3782.00,1.1311
3781.00,1.1310
3780.00,1.1308
3779.00,1.1307
3778.00,1.1307
3777.00,1.1307
3776.00,1.1305
3775.00,1.1305
3774.00,1.1305
3773.00,1.1305
3772.00,1.1304
3771.00,1.1303
3770.00,1.1302
3769.00,1.1303
3768.00,1.1302
3767.00,1.1301
3766.00,1.1300
3765.00,1.1299
3764.00,1.1300
3763.00,1.1300
3762.00,1.1299
3761.00,1.1298
3760.00,1.1298
3759.00,1.1298
3758.00,1.1297
3757.00,1.1295
3756.00,1.1293
3755.00,1.1291
3754.00,1.1289
3753.00,1.1287
3752.00,1.1286
3751.00,1.1284
3750.00,1.1282
3749.00,1.1281
3748.00,1.1280
3747.00,1.1280
3746.00,1.1278
3745.00,1.1277
3744.00,1.1280
3743.00,1.1283
3742.00,1.1283
3741.00,1.1281
3740.00,1.1280
3739.00,1.1280
3738.00,1.1280
3737.00,1.1281
3736.00,1.1282
3735.00,1.1283
3734.00,1.1282
3733.00,1.1281
3732.00,1.1279
3731.00,1.1280
3730.00,1.1281
3729.00,1.1282
3728.00,1.1282
3727.00,1.1283
3726.00,1.1285
3725.00,1.1286
3724.00,1.1286
3723.00,1.1285
3722.00,1.1285
3721.00,1.1285
3720.00,1.1285
3719.00,1.1284
3718.00,1.1284
3717.00,1.1283
3716.00,1.1283
3715.00,1.1282
3714.00,1.1281
3713.00,1.1281
3712.00,1.1281
3711.00,1.1280
3710.00,1.1280
3709.00,1.1280
3708.00,1.1281
3707.00,1.1282
3706.00,1.1283
3705.00,1.1285
3704.00,1.1286
3703.00,1.1287
3702.00,1.1288
3701.00,1.1289
3700.00,1.1290
3699.00,1.1290
3698.00,1.1290
3697.00,1.1290
3696.00,1.1291
3695.00,1.1293
3694.00,1.1294
3693.00,1.1294
3692.00,1.1294
3691.00,1.1294
3690.00,1.1293
3689.00,1.1292
3688.00,1.1293
3687.00,1.1295
3686.00,1.1297
3685.00,1.1299
3684.00,1.1301
3683.00,1.1303
3682.00,1.1305
3681.00,1.1306
3680.00,1.1307
3679.00,1.1308
3678.00,1.1310
3677.00,1.1310
3676.00,1.1309
3675.00,1.1311
3674.00,1.1315
3673.00,1.1318
3672.00,1.1319
3671.00,1.1320
3670.00,1.1323
3669.00,1.1326
3668.00,1.1330
3667.00,1.1333
3666.00,1.1335
3665.00,1.1338
3664.00,1.1341
3663.00,1.1343
3662.00,1.1345
3661.00,1.1347
3660.00,1.1349
3659.00,1.1350
3658.00,1.1352
3657.00,1.1353
3656.00,1.1356
3655.00,1.1359
3654.00,1.1362
3653.00,1.1362
3652.00,1.1362
3651.00,1.1364
3650.00,1.1367
3649.00,1.1370
3648.00,1.1372
3647.00,1.1374
3646.00,1.1378
3645.00,1.1382
3644.00,1.1385
3643.00,1.1388
3642.00,1.1391
3641.00,1.1393
3640.00,1.1396
3639.00,1.1397
3638.00,1.1399
3637.00,1.1400
3636.00,1.1401
3635.00,1.1402
3634.00,1.1402
3633.00,1.1403
3632.00,1.1404
3631.00,1.1404
3630.00,1.1403
3629.00,1.1403
3628.00,1.1406
3627.00,1.1409
3626.00,1.1411
3625.00,1.1413
3624.00,1.1416
3623.00,1.1419
3622.00,1.1422
3621.00,1.1424
3620.00,1.1427
3619.00,1.1429
3618.00,1.1430
3617.00,1.1432
3616.00,1.1432
3615.00,1.1432
3614.00,1.1432
3613.00,1.1432
3612.00,1.1432
3611.00,1.1432
3610.00,1.1432
3609.00,1.1433
3608.00,1.1434
3607.00,1.1437
3606.00,1.1439
3605.00,1.1440
3604.00,1.1442
3603.00,1.1444
3602.00,1.1445
3601.00,1.1446
3600.00,1.1448
3599.00,1.1449
3598.00,1.1450
3597.00,1.1451
3596.00,1.1452
3595.00,1.1452
3594.00,1.1452
3593.00,1.1452
3592.00,1.1452
3591.00,1.1452
3590.00,1.1452
3589.00,1.1452
3588.00,1.1452
3587.00,1.1453
3586.00,1.1453
3585.00,1.1454
3584.00,1.1454
3583.00,1.1456
3582.00,1.1457
3581.00,1.1459
3580.00,1.1460
3579.00,1.1461
3578.00,1.1462
3577.00,1.1462
3576.00,1.1462
3575.00,1.1463
3574.00,1.1463
3573.00,1.1463
3572.00,1.1463
3571.00,1.1464
3570.00,1.1464
3569.00,1.1464
3568.00,1.1465
3567.00,1.1466
3566.00,1.1467
3565.00,1.1468
3564.00,1.1468
3563.00,1.1469
3562.00,1.1469
3561.00,1.1470
3560.00,1.1470
3559.00,1.1471
3558.00,1.1471
3557.00,1.1472
3556.00,1.1473
3555.00,1.1473
3554.00,1.1474
3553.00,1.1474
3552.00,1.1475
3551.00,1.1476
3550.00,1.1476
3549.00,1.1477
3548.00,1.1477
3547.00,1.1477
3546.00,1.1477
3545.00,1.1477
3544.00,1.1478
3543.00,1.1479
3542.00,1.1480
3541.00,1.1481
3540.00,1.1483
3539.00,1.1484
3538.00,1.1485
3537.00,1.1485
3536.00,1.1486
3535.00,1.1487
3534.00,1.1488
3533.00,1.1489
3532.00,1.1490
3531.00,1.1491
3530.00,1.1492
3529.00,1.1493
3528.00,1.1494
3527.00,1.1495
3526.00,1.1496
3525.00,1.1496
3524.00,1.1497
3523.00,1.1498
3522.00,1.1500
3521.00,1.1502
3520.00,1.1504
3519.00,1.1505
3518.00,1.1507
3517.00,1.1508
3516.00,1.1509
3515.00,1.1511
3514.00,1.1512
3513.00,1.1514
3512.00,1.1516
3511.00,1.1518
3510.00,1.1519
3509.00,1.1521
3508.00,1.1522
3507.00,1.1524
3506.00,1.1525
3505.00,1.1527
3504.00,1.1528
3503.00,1.1530
3502.00,1.1532
3501.00,1.1534
3500.00,1.1536
3499.00,1.1539
3498.00,1.1541
3497.00,1.1543
3496.00,1.1544
3495.00,1.1547
3494.00,1.1549
3493.00,1.1551
3492.00,1.1554
3491.00,1.1556
3490.00,1.1558
3489.00,1.1560
3488.00,1.1562
3487.00,1.1565
3486.00,1.1567
3485.00,1.1570
3484.00,1.1572
3483.00,1.1575
3482.00,1.1577
3481.00,1.1579
3480.00,1.1580
3479.00,1.1583
3478.00,1.1585
3477.00,1.1588
3476.00,1.1591
3475.00,1.1594
3474.00,1.1597
3473.00,1.1600
3472.00,1.1602
3471.00,1.1604
3470.00,1.1605
3469.00,1.1607
3468.00,1.1609
3467.00,1.1612
3466.00,1.1616
3465.00,1.1620
3464.00,1.1624
3463.00,1.1628
3462.00,1.1631
3461.00,1.1634
3460.00,1.1638
3459.00,1.1641
3458.00,1.1644
3457.00,1.1647
3456.00,1.1651
3455.00,1.1654
3454.00,1.1657
3453.00,1.1660
3452.00,1.1663
3451.00,1.1667
3450.00,1.1670
3449.00,1.1674
3448.00,1.1677
3447.00,1.1681
3446.00,1.1684
3445.00,1.1688
3444.00,1.1691
3443.00,1.1694
3442.00,1.1698
3441.00,1.1701
3440.00,1.1704
3439.00,1.1707
3438.00,1.1709
3437.00,1.1711
3436.00,1.1714
3435.00,1.1717
3434.00,1.1720
3433.00,1.1724
3432.00,1.1729
3431.00,1.1732
3430.00,1.1736
3429.00,1.1740
3428.00,1.1743
3427.00,1.1747
3426.00,1.1750
3425.00,1.1753
3424.00,1.1756
3423.00,1.1759
3422.00,1.1762
3421.00,1.1764
3420.00,1.1767
3419.00,1.1770
3418.00,1.1773
3417.00,1.1775
3416.00,1.1777
3415.00,1.1779
3414.00,1.1781
3413.00,1.1783
3412.00,1.1785
3411.00,1.1787
3410.00,1.1789
3409.00,1.1791
3408.00,1.1793
3407.00,1.1795
3406.00,1.1798
3405.00,1.1800
3404.00,1.1801
3403.00,1.1801
3402.00,1.1802
3401.00,1.1803
3400.00,1.1804
3399.00,1.1807
3398.00,1.1810
3397.00,1.1813
3396.00,1.1816
3395.00,1.1818
3394.00,1.1818
3393.00,1.1819
3392.00,1.1819
3391.00,1.1820
3390.00,1.1822
3389.00,1.1824
3388.00,1.1827
3387.00,1.1829
3386.00,1.1831
3385.00,1.1832
3384.00,1.1833
3383.00,1.1834
3382.00,1.1835
3381.00,1.1836
3380.00,1.1837
3379.00,1.1839
3378.00,1.1839
3377.00,1.1840
3376.00,1.1841
3375.00,1.1842
3374.00,1.1843
3373.00,1.1844
3372.00,1.1844
3371.00,1.1844
3370.00,1.1843
3369.00,1.1843
3368.00,1.1844
3367.00,1.1845
3366.00,1.1847
3365.00,1.1848
3364.00,1.1850
3363.00,1.1851
3362.00,1.1852
3361.00,1.1853
3360.00,1.1854
3359.00,1.1855
3358.00,1.1856
3357.00,1.1856
3356.00,1.1857
3355.00,1.1857
3354.00,1.1857
3353.00,1.1857
3352.00,1.1856
3351.00,1.1856
3350.00,1.1856
3349.00,1.1857
3348.00,1.1859
3347.00,1.1860
3346.00,1.1861
3345.00,1.1862
3344.00,1.1862
3343.00,1.1862
3342.00,1.1862
3341.00,1.1862
3340.00,1.1862
3339.00,1.1862
3338.00,1.1863
3337.00,1.1864
3336.00,1.1865
3335.00,1.1866
3334.00,1.1867
3333.00,1.1868
3332.00,1.1869
3331.00,1.1869
3330.00,1.1869
3329.00,1.1870
3328.00,1.1870
3327.00,1.1870
3326.00,1.1871
3325.00,1.1871
3324.00,1.1872
3323.00,1.1873
3322.00,1.1874
3321.00,1.1875
3320.00,1.1876
3319.00,1.1877
3318.00,1.1878
3317.00,1.1879
3316.00,1.1879
3315.00,1.1880
3314.00,1.1880
3313.00,1.1881
3312.00,1.1881
3311.00,1.1882
3310.00,1.1882
3309.00,1.1882
3308.00,1.1881
3307.00,1.1880
3306.00,1.1881
3305.00,1.1881
3304.00,1.1883
3303.00,1.1886
3302.00,1.1888
3301.00,1.1891
3300.00,1.1892
3299.00,1.1893
3298.00,1.1894
3297.00,1.1894
3296.00,1.1895
3295.00,1.1895
3294.00,1.1895
3293.00,1.1895
3292.00,1.1895
3291.00,1.1897
3290.00,1.1898
3289.00,1.1900
3288.00,1.1902
3287.00,1.1903
3286.00,1.1904
3285.00,1.1906
3284.00,1.1907
3283.00,1.1907
3282.00,1.1908
3281.00,1.1909
3280.00,1.1910
3279.00,1.1910
3278.00,1.1911
3277.00,1.1912
3276.00,1.1913
3275.00,1.1913
3274.00,1.1914
3273.00,1.1914
3272.00,1.1914
3271.00,1.1914
3270.00,1.1915
3269.00,1.1917
3268.00,1.1919
3267.00,1.1921
3266.00,1.1923
3265.00,1.1924
3264.00,1.1925
3263.00,1.1926
3262.00,1.1927
3261.00,1.1928
3260.00,1.1929
3259.00,1.1929
3258.00,1.1930
3257.00,1.1931
3256.00,1.1932
3255.00,1.1933
3254.00,1.1935
3253.00,1.1936
3252.00,1.1938
3251.00,1.1939
3250.00,1.1940
3249.00,1.1941
3248.00,1.1941
3247.00,1.1942
3246.00,1.1943
3245.00,1.1945
3244.00,1.1946
3243.00,1.1948
3242.00,1.1949
3241.00,1.1950
3240.00,1.1951
3239.00,1.1952
3238.00,1.1953
3237.00,1.1954
3236.00,1.1954
3235.00,1.1954
3234.00,1.1954
3233.00,1.1955
3232.00,1.1957
3231.00,1.1958
3230.00,1.1960
3229.00,1.1961
3228.00,1.1962
3227.00,1.1963
3226.00,1.1963
3225.00,1.1964
3224.00,1.1965
3223.00,1.1965
3222.00,1.1966
3221.00,1.1966
3220.00,1.1966
3219.00,1.1966
3218.00,1.1966
3217.00,1.1967
3216.00,1.1967
3215.00,1.1968
3214.00,1.1968
3213.00,1.1968
3212.00,1.1967
3211.00,1.1967
3210.00,1.1967
3209.00,1.1967
3208.00,1.1967
3207.00,1.1968
3206.00,1.1968
3205.00,1.1968
3204.00,1.1968
3203.00,1.1968
3202.00,1.1968
3201.00,1.1968
3200.00,1.1968
3199.00,1.1967
3198.00,1.1967
3197.00,1.1967
3196.00,1.1968
3195.00,1.1968
3194.00,1.1968
3193.00,1.1968
3192.00,1.1968
3191.00,1.1968
3190.00,1.1968
3189.00,1.1968
3188.00,1.1967
3187.00,1.1967
3186.00,1.1967
3185.00,1.1967
3184.00,1.1967
3183.00,1.1967
3182.00,1.1967
3181.00,1.1967
3180.00,1.1967
3179.00,1.1967
3178.00,1.1967
3177.00,1.1967
3176.00,1.1967
3175.00,1.1967
3174.00,1.1968
3173.00,1.1968
3172.00,1.1968
3171.00,1.1968
3170.00,1.1968
3169.00,1.1968
3168.00,1.1968
3167.00,1.1969
3166.00,1.1969
3165.00,1.1969
3164.00,1.1969
3163.00,1.1970
3162.00,1.1970
3161.00,1.1970
3160.00,1.1970
3159.00,1.1970
3158.00,1.1971
3157.00,1.1971
3156.00,1.1971
3155.00,1.1970
3154.00,1.1969
3153.00,1.1969
3152.00,1.1970
3151.00,1.1970
3150.00,1.1972
3149.00,1.1973
3148.00,1.1973
3147.00,1.1974
3146.00,1.1974
3145.00,1.1975
3144.00,1.1975
3143.00,1.1976
3142.00,1.1976
3141.00,1.1976
3140.00,1.1976
3139.00,1.1976
3138.00,1.1976
3137.00,1.1977
3136.00,1.1978
3135.00,1.1978
3134.00,1.1979
3133.00,1.1979
3132.00,1.1979
3131.00,1.1980
3130.00,1.1980
3129.00,1.1981
3128.00,1.1981
3127.00,1.1982
3126.00,1.1982
3125.00,1.1982
3124.00,1.1982
3123.00,1.1982
3122.00,1.1981
3121.00,1.1981
3120.00,1.1980
3119.00,1.1980
3118.00,1.1979
3117.00,1.1980
3116.00,1.1980
3115.00,1.1981
3114.00,1.1982
3113.00,1.1983
3112.00,1.1983
3111.00,1.1983
3110.00,1.1983
3109.00,1.1983
3108.00,1.1983
3107.00,1.1983
3106.00,1.1983
3105.00,1.1984
3104.00,1.1984
3103.00,1.1984
3102.00,1.1984
3101.00,1.1983
3100.00,1.1983
3099.00,1.1982
3098.00,1.1982
3097.00,1.1982
3096.00,1.1981
3095.00,1.1981
3094.00,1.1981
3093.00,1.1980
3092.00,1.1980
3091.00,1.1979
3090.00,1.1978
3089.00,1.1977
3088.00,1.1976
3087.00,1.1975
3086.00,1.1974
3085.00,1.1973
3084.00,1.1973
3083.00,1.1972
3082.00,1.1972
3081.00,1.1971
3080.00,1.1969
3079.00,1.1968
3078.00,1.1968
3077.00,1.1968
3076.00,1.1968
3075.00,1.1968
3074.00,1.1968
3073.00,1.1968
3072.00,1.1968
3071.00,1.1967
3070.00,1.1965
3069.00,1.1964
3068.00,1.1963
3067.00,1.1962
3066.00,1.1962
3065.00,1.1962
3064.00,1.1962
3063.00,1.1962
3062.00,1.1962
3061.00,1.1962
3060.00,1.1961
3059.00,1.1960
3058.00,1.1959
3057.00,1.1958
3056.00,1.1957
3055.00,1.1956
3054.00,1.1956
3053.00,1.1955
3052.00,1.1954
3051.00,1.1954
3050.00,1.1953
3049.00,1.1952
3048.00,1.1952
3047.00,1.1951
3046.00,1.1951
3045.00,1.1950
3044.00,1.1949
3043.00,1.1947
3042.00,1.1947
3041.00,1.1946
3040.00,1.1946
3039.00,1.1946
3038.00,1.1946
3037.00,1.1946
3036.00,1.1945
3035.00,1.1944
3034.00,1.1943
3033.00,1.1942
3032.00,1.1942
3031.00,1.1942
3030.00,1.1941
3029.00,1.1941
3028.00,1.1940
3027.00,1.1939
3026.00,1.1938
3025.00,1.1937
3024.00,1.1937
3023.00,1.1936
3022.00,1.1936
3021.00,1.1935
3020.00,1.1935
3019.00,1.1934
3018.00,1.1933
3017.00,1.1932
3016.00,1.1932
3015.00,1.1932
3014.00,1.1931
3013.00,1.1931
3012.00,1.1931
3011.00,1.1931
3010.00,1.1931
3009.00,1.1931
3008.00,1.1930
3007.00,1.1930
3006.00,1.1929
3005.00,1.1928
3004.00,1.1927
3003.00,1.1926
3002.00,1.1926
3001.00,1.1925
3000.00,1.1924
2999.00,1.1922
2998.00,1.1922
2997.00,1.1921
2996.00,1.1920
2995.00,1.1920
2994.00,1.1919
2993.00,1.1918
2992.00,1.1918
2991.00,1.1917
2990.00,1.1917
2989.00,1.1916
2988.00,1.1916
2987.00,1.1915
2986.00,1.1914
2985.00,1.1914
2984.00,1.1913
2983.00,1.1912
2982.00,1.1911
2981.00,1.1910
2980.00,1.1909
2979.00,1.1909
2978.00,1.1908
2977.00,1.1907
2976.00,1.1907
2975.00,1.1906
2974.00,1.1905
2973.00,1.1904
2972.00,1.1904
2971.00,1.1903
2970.00,1.1902
2969.00,1.1901
2968.00,1.1900
2967.00,1.1899
2966.00,1.1899
2965.00,1.1900
2964.00,1.1900
2963.00,1.1900
2962.00,1.1900
2961.00,1.1899
2960.00,1.1899
2959.00,1.1898
2958.00,1.1898
2957.00,1.1897
2956.00,1.1897
2955.00,1.1896
2954.00,1.1895
2953.00,1.1894
2952.00,1.1892
2951.00,1.1891
2950.00,1.1890
2949.00,1.1888
2948.00,1.1887
2947.00,1.1885
2946.00,1.1884
2945.00,1.1882
2944.00,1.1881
2943.00,1.1880
2942.00,1.1879
2941.00,1.1878
2940.00,1.1877
2939.00,1.1876
2938.00,1.1876
2937.00,1.1875
2936.00,1.1875
2935.00,1.1875
2934.00,1.1875
2933.00,1.1874
2932.00,1.1874
2931.00,1.1873
2930.00,1.1872
2929.00,1.1871
2928.00,1.1871
2927.00,1.1871
2926.00,1.1872
2925.00,1.1873
2924.00,1.1875
2923.00,1.1876
2922.00,1.1878
2921.00,1.1879
2920.00,1.1879
2919.00,1.1879
2918.00,1.1878
2917.00,1.1877
2916.00,1.1876
2915.00,1.1875
2914.00,1.1873
2913.00,1.1871
2912.00,1.1870
2911.00,1.1868
2910.00,1.1867
2909.00,1.1865
2908.00,1.1864
2907.00,1.1863
2906.00,1.1862
2905.00,1.1860
2904.00,1.1859
2903.00,1.1858
2902.00,1.1858
2901.00,1.1857
2900.00,1.1856
2899.00,1.1855
2898.00,1.1854
2897.00,1.1853
2896.00,1.1852
2895.00,1.1851
2894.00,1.1850
2893.00,1.1850
2892.00,1.1849
2891.00,1.1848
2890.00,1.1847
2889.00,1.1846
2888.00,1.1845
2887.00,1.1844
2886.00,1.1843
2885.00,1.1842
2884.00,1.1841
2883.00,1.1840
2882.00,1.1838
2881.00,1.1837
2880.00,1.1836
2879.00,1.1835
2878.00,1.1834
2877.00,1.1833
2876.00,1.1831
2875.00,1.1830
2874.00,1.1828
2873.00,1.1826
2872.00,1.1825
2871.00,1.1824
2870.00,1.1823
2869.00,1.1822
2868.00,1.1821
2867.00,1.1820
2866.00,1.1818
2865.00,1.1817
2864.00,1.1817
2863.00,1.1817
2862.00,1.1818
2861.00,1.1819
2860.00,1.1819
2859.00,1.1820
2858.00,1.1820
2857.00,1.1820
2856.00,1.1820
2855.00,1.1820
2854.00,1.1820
2853.00,1.1820
2852.00,1.1820
2851.00,1.1820
2850.00,1.1821
2849.00,1.1821
2848.00,1.1820
2847.00,1.1820
2846.00,1.1819
2845.00,1.1818
2844.00,1.1817
2843.00,1.1816
2842.00,1.1814
2841.00,1.1813
2840.00,1.1811
2839.00,1.1810
2838.00,1.1809
2837.00,1.1809
2836.00,1.1808
2835.00,1.1808
2834.00,1.1807
2833.00,1.1806
2832.00,1.1805
2831.00,1.1804
2830.00,1.1804
2829.00,1.1803
2828.00,1.1803
2827.00,1.1802
2826.00,1.1801
2825.00,1.1801
2824.00,1.1800
2823.00,1.1800
2822.00,1.1799
2821.00,1.1798
2820.00,1.1798
2819.00,1.1797
2818.00,1.1797
2817.00,1.1797
2816.00,1.1796
2815.00,1.1795
2814.00,1.1795
2813.00,1.1794
2812.00,1.1793
2811.00,1.1793
2810.00,1.1792
2809.00,1.1792
2808.00,1.1791
2807.00,1.1791
2806.00,1.1790
2805.00,1.1790
2804.00,1.1790
2803.00,1.1789
2802.00,1.1789
2801.00,1.1788
2800.00,1.1787
2799.00,1.1786
2798.00,1.1786
2797.00,1.1786
2796.00,1.1785
2795.00,1.1785
2794.00,1.1784
2793.00,1.1783
2792.00,1.1783
2791.00,1.1783
2790.00,1.1782
2789.00,1.1782
2788.00,1.1782
2787.00,1.1782
2786.00,1.1782
2785.00,1.1781
2784.00,1.1781
2783.00,1.1781
2782.00,1.1780
2781.00,1.1780
2780.00,1.1780
2779.00,1.1779
2778.00,1.1778
2777.00,1.1778
2776.00,1.1778
2775.00,1.1777
2774.00,1.1777
2773.00,1.1777
2772.00,1.1777
2771.00,1.1776
2770.00,1.1776
2769.00,1.1775
2768.00,1.1775
2767.00,1.1775
2766.00,1.1775
2765.00,1.1774
2764.00,1.1774
2763.00,1.1774
2762.00,1.1773
2761.00,1.1773
2760.00,1.1773
2759.00,1.1773
2758.00,1.1772
2757.00,1.1772
2756.00,1.1772
2755.00,1.1772
2754.00,1.1772
2753.00,1.1771
2752.00,1.1771
2751.00,1.1771
2750.00,1.1770
2749.00,1.1770
2748.00,1.1770
2747.00,1.1770
2746.00,1.1769
2745.00,1.1769
2744.00,1.1769
2743.00,1.1769
2742.00,1.1769
2741.00,1.1769
2740.00,1.1769
2739.00,1.1768
2738.00,1.1768
2737.00,1.1768
2736.00,1.1767
2735.00,1.1767
2734.00,1.1767
2733.00,1.1767
2732.00,1.1767
2731.00,1.1767
2730.00,1.1766
2729.00,1.1766
2728.00,1.1766
2727.00,1.1765
2726.00,1.1765
2725.00,1.1765
2724.00,1.1765
2723.00,1.1765
2722.00,1.1765
2721.00,1.1765
2720.00,1.1764
2719.00,1.1764
2718.00,1.1764
2717.00,1.1764
2716.00,1.1763
2715.00,1.1763
2714.00,1.1763
2713.00,1.1763
2712.00,1.1763
2711.00,1.1763
2710.00,1.1762
2709.00,1.1762
2708.00,1.1763
2707.00,1.1763
2706.00,1.1763
2705.00,1.1763
2704.00,1.1762
2703.00,1.1762
2702.00,1.1762
2701.00,1.1762
2700.00,1.1762
2699.00,1.1762
2698.00,1.1762
2697.00,1.1762
2696.00,1.1762
2695.00,1.1762
2694.00,1.1761
2693.00,1.1761
2692.00,1.1761
2691.00,1.1761
2690.00,1.1761
2689.00,1.1761
2688.00,1.1761
2687.00,1.1761
2686.00,1.1761
2685.00,1.1761
2684.00,1.1761
2683.00,1.1761
2682.00,1.1761
2681.00,1.1761
2680.00,1.1761
2679.00,1.1761
2678.00,1.1761
2677.00,1.1761
2676.00,1.1761
2675.00,1.1761
2674.00,1.1761
2673.00,1.1761
2672.00,1.1761
2671.00,1.1761
2670.00,1.1761
2669.00,1.1761
2668.00,1.1761
2667.00,1.1761
2666.00,1.1761
2665.00,1.1761
2664.00,1.1761
2663.00,1.1762
2662.00,1.1762
2661.00,1.1762
2660.00,1.1763
2659.00,1.1763
2658.00,1.1763
2657.00,1.1763
2656.00,1.1763
2655.00,1.1763
2654.00,1.1763
2653.00,1.1763
2652.00,1.1763
2651.00,1.1763
2650.00,1.1763
2649.00,1.1764
2648.00,1.1764
2647.00,1.1764
2646.00,1.1764
2645.00,1.1764
2644.00,1.1765
2643.00,1.1765
2642.00,1.1765
2641.00,1.1765
2640.00,1.1765
2639.00,1.1766
2638.00,1.1766
2637.00,1.1766
2636.00,1.1766
2635.00,1.1766
2634.00,1.1766
2633.00,1.1766
2632.00,1.1767
2631.00,1.1767
2630.00,1.1767
2629.00,1.1767
2628.00,1.1767
2627.00,1.1767
2626.00,1.1767
2625.00,1.1767
2624.00,1.1767
2623.00,1.1767
2622.00,1.1767
2621.00,1.1767
2620.00,1.1767
2619.00,1.1767
2618.00,1.1768
2617.00,1.1768
2616.00,1.1768
2615.00,1.1768
2614.00,1.1768
2613.00,1.1769
2612.00,1.1769
2611.00,1.1769
2610.00,1.1769
2609.00,1.1769
2608.00,1.1770
2607.00,1.1770
2606.00,1.1770
2605.00,1.1771
2604.00,1.1771
2603.00,1.1771
2602.00,1.1771
2601.00,1.1771
2600.00,1.1771
2599.00,1.1771
2598.00,1.1771
2597.00,1.1772
2596.00,1.1772
2595.00,1.1772
2594.00,1.1772
2593.00,1.1773
2592.00,1.1773
2591.00,1.1774
2590.00,1.1774
2589.00,1.1774
2588.00,1.1774
2587.00,1.1774
2586.00,1.1775
2585.00,1.1775
2584.00,1.1776
2583.00,1.1776
2582.00,1.1776
2581.00,1.1776
2580.00,1.1777
2579.00,1.1776
2578.00,1.1776
2577.00,1.1776
2576.00,1.1777
2575.00,1.1777
2574.00,1.1778
2573.00,1.1778
2572.00,1.1778
2571.00,1.1778
2570.00,1.1779
2569.00,1.1779
2568.00,1.1779
2567.00,1.1780
2566.00,1.1780
2565.00,1.1780
2564.00,1.1781
2563.00,1.1781
2562.00,1.1781
2561.00,1.1781
2560.00,1.1782
2559.00,1.1782
2558.00,1.1782
2557.00,1.1782
2556.00,1.1783
2555.00,1.1783
2554.00,1.1783
2553.00,1.1784
2552.00,1.1784
2551.00,1.1784
2550.00,1.1784
2549.00,1.1785
2548.00,1.1785
2547.00,1.1785
2546.00,1.1785
2545.00,1.1786
2544.00,1.1786
2543.00,1.1786
2542.00,1.1787
2541.00,1.1787
2540.00,1.1787
2539.00,1.1787
2538.00,1.1788
2537.00,1.1788
2536.00,1.1789
2535.00,1.1789
2534.00,1.1789
2533.00,1.1789
2532.00,1.1790
2531.00,1.1791
2530.00,1.1791
2529.00,1.1791
2528.00,1.1791
2527.00,1.1792
2526.00,1.1792
2525.00,1.1792
2524.00,1.1792
2523.00,1.1793
2522.00,1.1793
2521.00,1.1794
2520.00,1.1794
2519.00,1.1795
2518.00,1.1795
2517.00,1.1795
2516.00,1.1795
2515.00,1.1796
2514.00,1.1796
2513.00,1.1797
2512.00,1.1797
2511.00,1.1798
2510.00,1.1798
2509.00,1.1798
2508.00,1.1799
2507.00,1.1799
2506.00,1.1799
2505.00,1.1799
2504.00,1.1799
2503.00,1.1800
2502.00,1.1800
2501.00,1.1800
2500.00,1.1801
2499.00,1.1801
2498.00,1.1802
2497.00,1.1802
2496.00,1.1802
2495.00,1.1803
2494.00,1.1803
2493.00,1.1803
2492.00,1.1803
2491.00,1.1804
2490.00,1.1804
2489.00,1.1804
2488.00,1.1805
2487.00,1.1805
2486.00,1.1805
2485.00,1.1806
2484.00,1.1806
2483.00,1.1806
2482.00,1.1806
2481.00,1.1807
2480.00,1.1807
2479.00,1.1807
2478.00,1.1808
2477.00,1.1808
2476.00,1.1808
2475.00,1.1809
2474.00,1.1809
2473.00,1.1810
2472.00,1.1810
2471.00,1.1810
2470.00,1.1810
2469.00,1.1810
2468.00,1.1810
2467.00,1.1810
2466.00,1.1811
2465.00,1.1811
2464.00,1.1812
2463.00,1.1812
2462.00,1.1812
2461.00,1.1813
2460.00,1.1813
2459.00,1.1813
2458.00,1.1813
2457.00,1.1813
2456.00,1.1813
2455.00,1.1813
2454.00,1.1814
2453.00,1.1814
2452.00,1.1814
2451.00,1.1814
2450.00,1.1814
2449.00,1.1814
2448.00,1.1814
2447.00,1.1814
2446.00,1.1814
2445.00,1.1814
2444.00,1.1813
2443.00,1.1813
2442.00,1.1813
2441.00,1.1813
2440.00,1.1813
2439.00,1.1813
2438.00,1.1813
2437.00,1.1813
2436.00,1.1813
2435.00,1.1813
2434.00,1.1812
2433.00,1.1812
2432.00,1.1812
2431.00,1.1812
2430.00,1.1812
2429.00,1.1812
2428.00,1.1811
2427.00,1.1811
2426.00,1.1811
2425.00,1.1811
2424.00,1.1811
2423.00,1.1811
2422.00,1.1811
2421.00,1.1811
2420.00,1.1811
2419.00,1.1810
2418.00,1.1810
2417.00,1.1810
2416.00,1.1810
2415.00,1.1809
2414.00,1.1809
2413.00,1.1809
2412.00,1.1809
2411.00,1.1809
2410.00,1.1808
2409.00,1.1808
2408.00,1.1808
2407.00,1.1807
2406.00,1.1807
2405.00,1.1807
2404.00,1.1807
2403.00,1.1807
2402.00,1.1806
2401.00,1.1806
2400.00,1.1806
2399.00,1.1806
2398.00,1.1806
2397.00,1.1806
2396.00,1.1806
2395.00,1.1806
2394.00,1.1805
2393.00,1.1805
2392.00,1.1805
2391.00,1.1805
2390.00,1.1804
2389.00,1.1804
2388.00,1.1804
2387.00,1.1805
2386.00,1.1805
2385.00,1.1805
2384.00,1.1806
2383.00,1.1806
2382.00,1.1807
2381.00,1.1807
2380.00,1.1808
2379.00,1.1809
2378.00,1.1809
2377.00,1.1809
2376.00,1.1810
2375.00,1.1810
2374.00,1.1810
2373.00,1.1810
2372.00,1.1810
2371.00,1.1809
2370.00,1.1809
2369.00,1.1808
2368.00,1.1809
2367.00,1.1809
2366.00,1.1809
2365.00,1.1809
2364.00,1.1810
2363.00,1.1810
2362.00,1.1810
2361.00,1.1810
2360.00,1.1810
2359.00,1.1810
2358.00,1.1810
2357.00,1.1811
2356.00,1.1811
2355.00,1.1812
2354.00,1.1812
2353.00,1.1812
2352.00,1.1812
2351.00,1.1812
2350.00,1.1810
2349.00,1.1809
2348.00,1.1807
2347.00,1.1806
2346.00,1.1807
2345.00,1.1809
2344.00,1.1813
2343.00,1.1816
2342.00,1.1820
2341.00,1.1823
2340.00,1.1824
2339.00,1.1824
2338.00,1.1822
2337.00,1.1820
2336.00,1.1819
2335.00,1.1817
2334.00,1.1816
2333.00,1.1816
2332.00,1.1816
2331.00,1.1816
2330.00,1.1816
2329.00,1.1816
2328.00,1.1816
2327.00,1.1816
2326.00,1.1816
2325.00,1.1816
2324.00,1.1816
2323.00,1.1817
2322.00,1.1817
2321.00,1.1817
2320.00,1.1818
2319.00,1.1818
2318.00,1.1817
2317.00,1.1817
2316.00,1.1817
2315.00,1.1818
2314.00,1.1818
2313.00,1.1818
2312.00,1.1818
2311.00,1.1818
2310.00,1.1818
2309.00,1.1818
2308.00,1.1818
2307.00,1.1818
2306.00,1.1818
2305.00,1.1818
2304.00,1.1818
2303.00,1.1818
2302.00,1.1818
2301.00,1.1819
2300.00,1.1819
2299.00,1.1819
2298.00,1.1819
2297.00,1.1819
2296.00,1.1819
2295.00,1.1819
2294.00,1.1819
2293.00,1.1820
2292.00,1.1820
2291.00,1.1820
2290.00,1.1820
2289.00,1.1821
2288.00,1.1821
2287.00,1.1821
2286.00,1.1821
2285.00,1.1821
2284.00,1.1822
2283.00,1.1822
2282.00,1.1822
2281.00,1.1822
2280.00,1.1823
2279.00,1.1823
2278.00,1.1824
2277.00,1.1824
2276.00,1.1824
2275.00,1.1824
2274.00,1.1825
2273.00,1.1825
2272.00,1.1826
2271.00,1.1826
2270.00,1.1826
2269.00,1.1826
2268.00,1.1826
2267.00,1.1826
2266.00,1.1826
2265.00,1.1827
2264.00,1.1827
2263.00,1.1827
2262.00,1.1827
2261.00,1.1827
2260.00,1.1828
2259.00,1.1827
2258.00,1.1828
2257.00,1.1828
2256.00,1.1829
2255.00,1.1829
2254.00,1.1829
2253.00,1.1829
2252.00,1.1829
2251.00,1.1829
2250.00,1.1829
2249.00,1.1829
2248.00,1.1829
2247.00,1.1829
2246.00,1.1830
2245.00,1.1830
2244.00,1.1830
2243.00,1.1830
2242.00,1.1831
2241.00,1.1831
2240.00,1.1831
2239.00,1.1830
2238.00,1.1830
2237.00,1.1830
2236.00,1.1831
2235.00,1.1831
2234.00,1.1831
2233.00,1.1831
2232.00,1.1831
2231.00,1.1831
2230.00,1.1831
2229.00,1.1831
2228.00,1.1832
2227.00,1.1832
2226.00,1.1832
2225.00,1.1832
2224.00,1.1832
2223.00,1.1832
2222.00,1.1832
2221.00,1.1832
2220.00,1.1832
2219.00,1.1831
2218.00,1.1831
2217.00,1.1831
2216.00,1.1831
2215.00,1.1831
2214.00,1.1831
2213.00,1.1831
2212.00,1.1831
2211.00,1.1831
2210.00,1.1831
2209.00,1.1831
2208.00,1.1831
2207.00,1.1830
2206.00,1.1830
2205.00,1.1830
2204.00,1.1831
2203.00,1.1831
2202.00,1.1830
2201.00,1.1830
2200.00,1.1830
2199.00,1.1830
2198.00,1.1829
2197.00,1.1829
2196.00,1.1829
2195.00,1.1829
2194.00,1.1829
2193.00,1.1829
2192.00,1.1829
2191.00,1.1829
2190.00,1.1829
2189.00,1.1829
2188.00,1.1829
2187.00,1.1829
2186.00,1.1828
2185.00,1.1828
2184.00,1.1828
2183.00,1.1828
2182.00,1.1827
2181.00,1.1827
2180.00,1.1827
2179.00,1.1826
2178.00,1.1826
2177.00,1.1826
2176.00,1.1826
2175.00,1.1826
2174.00,1.1825
2173.00,1.1825
2172.00,1.1825
2171.00,1.1825
2170.00,1.1824
2169.00,1.1824
2168.00,1.1824
2167.00,1.1823
2166.00,1.1822
2165.00,1.1822
2164.00,1.1821
2163.00,1.1821
2162.00,1.1821
2161.00,1.1821
2160.00,1.1821
2159.00,1.1820
2158.00,1.1820
2157.00,1.1820
2156.00,1.1820
2155.00,1.1819
2154.00,1.1818
2153.00,1.1818
2152.00,1.1817
2151.00,1.1817
2150.00,1.1816
2149.00,1.1816
2148.00,1.1816
2147.00,1.1815
2146.00,1.1814
2145.00,1.1814
2144.00,1.1814
2143.00,1.1813
2142.00,1.1813
2141.00,1.1813
2140.00,1.1812
2139.00,1.1812
2138.00,1.1811
2137.00,1.1810
2136.00,1.1810
2135.00,1.1809
2134.00,1.1809
2133.00,1.1808
2132.00,1.1808
2131.00,1.1807
2130.00,1.1807
2129.00,1.1806
2128.00,1.1806
2127.00,1.1805
2126.00,1.1805
2125.00,1.1804
2124.00,1.1804
2123.00,1.1804
2122.00,1.1803
2121.00,1.1802
2120.00,1.1802
2119.00,1.1802
2118.00,1.1801
2117.00,1.1801
2116.00,1.1800
2115.00,1.1800
2114.00,1.1799
2113.00,1.1799
2112.00,1.1798
2111.00,1.1797
2110.00,1.1797
2109.00,1.1796
2108.00,1.1796
2107.00,1.1795
2106.00,1.1794
2105.00,1.1794
2104.00,1.1794
2103.00,1.1793
2102.00,1.1792
2101.00,1.1791
2100.00,1.1791
2099.00,1.1791
2098.00,1.1790
2097.00,1.1790
2096.00,1.1789
2095.00,1.1788
2094.00,1.1788
2093.00,1.1787
2092.00,1.1787
2091.00,1.1786
2090.00,1.1785
2089.00,1.1785
2088.00,1.1785
2087.00,1.1784
2086.00,1.1783
2085.00,1.1783
2084.00,1.1783
2083.00,1.1782
2082.00,1.1781
2081.00,1.1781
2080.00,1.1780
2079.00,1.1779
2078.00,1.1778
2077.00,1.1778
2076.00,1.1778
2075.00,1.1777
2074.00,1.1776
2073.00,1.1776
2072.00,1.1775
2071.00,1.1774
2070.00,1.1773
2069.00,1.1773
2068.00,1.1772
2067.00,1.1772
2066.00,1.1771
2065.00,1.1771
2064.00,1.1770
2063.00,1.1769
2062.00,1.1768
2061.00,1.1768
2060.00,1.1768
2059.00,1.1767
2058.00,1.1766
2057.00,1.1766
2056.00,1.1766
2055.00,1.1765
2054.00,1.1764
2053.00,1.1763
2052.00,1.1762
2051.00,1.1762
2050.00,1.1761
2049.00,1.1760
2048.00,1.1760
2047.00,1.1760
2046.00,1.1759
2045.00,1.1758
2044.00,1.1758
2043.00,1.1757
2042.00,1.1756
2041.00,1.1756
2040.00,1.1755
2039.00,1.1754
2038.00,1.1753
2037.00,1.1753
2036.00,1.1753
2035.00,1.1752
2034.00,1.1752
2033.00,1.1751
2032.00,1.1750
2031.00,1.1750
2030.00,1.1749
2029.00,1.1749
2028.00,1.1748
2027.00,1.1748
2026.00,1.1747
2025.00,1.1747
2024.00,1.1746
2023.00,1.1746
2022.00,1.1745
2021.00,1.1744
2020.00,1.1744
2019.00,1.1744
2018.00,1.1743
2017.00,1.1743
2016.00,1.1742
2015.00,1.1741
2014.00,1.1740
2013.00,1.1740
2012.00,1.1740
2011.00,1.1740
2010.00,1.1739
2009.00,1.1738
2008.00,1.1738
2007.00,1.1738
2006.00,1.1737
2005.00,1.1736
2004.00,1.1736
2003.00,1.1736
2002.00,1.1735
2001.00,1.1734
2000.00,1.1734
1999.00,1.1733
1998.00,1.1733
1997.00,1.1733
1996.00,1.1733
1995.00,1.1733
1994.00,1.1733
1993.00,1.1733
1992.00,1.1733
1991.00,1.1732
1990.00,1.1730
1989.00,1.1730
1988.00,1.1729
1987.00,1.1729
1986.00,1.1728
1985.00,1.1728
1984.00,1.1727
1983.00,1.1727
1982.00,1.1727
1981.00,1.1727
1980.00,1.1726
1979.00,1.1726
1978.00,1.1725
1977.00,1.1725
1976.00,1.1725
1975.00,1.1724
1974.00,1.1724
1973.00,1.1723
1972.00,1.1723
1971.00,1.1723
1970.00,1.1723
1969.00,1.1723
1968.00,1.1723
1967.00,1.1723
1966.00,1.1722
1965.00,1.1721
1964.00,1.1721
1963.00,1.1721
1962.00,1.1720
1961.00,1.1720
1960.00,1.1720
1959.00,1.1720
1958.00,1.1721
1957.00,1.1721
1956.00,1.1721
1955.00,1.1720
1954.00,1.1720
1953.00,1.1719
1952.00,1.1719
1951.00,1.1719
1950.00,1.1719
1949.00,1.1719
1948.00,1.1719
1947.00,1.1718
1946.00,1.1718
1945.00,1.1719
1944.00,1.1720
1943.00,1.1720
1942.00,1.1719
1941.00,1.1719
1940.00,1.1718
1939.00,1.1717
1938.00,1.1717
1937.00,1.1717
1936.00,1.1717
1935.00,1.1717
1934.00,1.1717
1933.00,1.1717
1932.00,1.1718
1931.00,1.1717
1930.00,1.1716
1929.00,1.1717
1928.00,1.1717
1927.00,1.1717
1926.00,1.1717
1925.00,1.1718
1924.00,1.1718
1923.00,1.1718
1922.00,1.1717
1921.00,1.1718
1920.00,1.1719
1919.00,1.1720
1918.00,1.1719
1917.00,1.1718
1916.00,1.1717
1915.00,1.1716
1914.00,1.1716
1913.00,1.1717
1912.00,1.1718
1911.00,1.1718
1910.00,1.1718
1909.00,1.1718
1908.00,1.1719
1907.00,1.1718
1906.00,1.1718
1905.00,1.1718
1904.00,1.1719
1903.00,1.1719
1902.00,1.1718
1901.00,1.1719
1900.00,1.1719
1899.00,1.1719
1898.00,1.1718
1897.00,1.1719
1896.00,1.1720
1895.00,1.1719
1894.00,1.1718
1893.00,1.1719
1892.00,1.1720
1891.00,1.1721
1890.00,1.1721
1889.00,1.1721
1888.00,1.1721
1887.00,1.1720
1886.00,1.1719
1885.00,1.1720
1884.00,1.1721
1883.00,1.1720
1882.00,1.1720
1881.00,1.1720
1880.00,1.1721
1879.00,1.1721
1878.00,1.1720
1877.00,1.1720
1876.00,1.1721
1875.00,1.1721
1874.00,1.1720
1873.00,1.1720
1872.00,1.1723
1871.00,1.1725
1870.00,1.1726
1869.00,1.1726
1868.00,1.1726
1867.00,1.1724
1866.00,1.1721
1865.00,1.1721
1864.00,1.1722
1863.00,1.1722
1862.00,1.1722
1861.00,1.1722
1860.00,1.1724
1859.00,1.1724
1858.00,1.1723
1857.00,1.1724
1856.00,1.1725
1855.00,1.1725
1854.00,1.1724
1853.00,1.1724
1852.00,1.1724
1851.00,1.1724
1850.00,1.1724
1849.00,1.1725
1848.00,1.1726
1847.00,1.1728
1846.00,1.1730
1845.00,1.1733
1844.00,1.1733
1843.00,1.1730
1842.00,1.1726
1841.00,1.1725
1840.00,1.1726
1839.00,1.1727
1838.00,1.1727
1837.00,1.1728
1836.00,1.1728
1835.00,1.1728
1834.00,1.1728
1833.00,1.1730
1832.00,1.1732
1831.00,1.1734
1830.00,1.1734
1829.00,1.1734
1828.00,1.1733
1827.00,1.1733
1826.00,1.1733
1825.00,1.1733
1824.00,1.1733
1823.00,1.1733
1822.00,1.1733
1821.00,1.1734
1820.00,1.1735
1819.00,1.1736
1818.00,1.1736
1817.00,1.1736
1816.00,1.1737
1815.00,1.1738
1814.00,1.1737
1813.00,1.1738
1812.00,1.1739
1811.00,1.1740
1810.00,1.1739
1809.00,1.1739
1808.00,1.1740
1807.00,1.1741
1806.00,1.1740
1805.00,1.1740
1804.00,1.1742
1803.00,1.1743
1802.00,1.1742
1801.00,1.1742
1800.00,1.1743
1799.00,1.1743
1798.00,1.1742
1797.00,1.1742
1796.00,1.1744
1795.00,1.1745
1794.00,1.1745
1793.00,1.1745
1792.00,1.1746
1791.00,1.1747
1790.00,1.1746
1789.00,1.1746
1788.00,1.1747
1787.00,1.1748
1786.00,1.1748
1785.00,1.1749
1784.00,1.1751
1783.00,1.1752
1782.00,1.1752
1781.00,1.1752
1780.00,1.1753
1779.00,1.1753
1778.00,1.1754
1777.00,1.1754
1776.00,1.1755
1775.00,1.1757
1774.00,1.1759
1773.00,1.1759
1772.00,1.1759
1771.00,1.1759
1770.00,1.1759
1769.00,1.1759
1768.00,1.1760
1767.00,1.1761
1766.00,1.1762
1765.00,1.1762
1764.00,1.1764
1763.00,1.1767
1762.00,1.1768
1761.00,1.1768
1760.00,1.1767
1759.00,1.1769
1758.00,1.1770
1757.00,1.1770
1756.00,1.1769
1755.00,1.1768
1754.00,1.1768
1753.00,1.1767
1752.00,1.1767
1751.00,1.1768
1750.00,1.1770
1749.00,1.1772
1748.00,1.1773
1747.00,1.1775
1746.00,1.1777
1745.00,1.1778
1744.00,1.1779
1743.00,1.1779
1742.00,1.1780
1741.00,1.1780
1740.00,1.1781
1739.00,1.1781
1738.00,1.1782
1737.00,1.1782
1736.00,1.1781
1735.00,1.1780
1734.00,1.1779
1733.00,1.1781
1732.00,1.1784
1731.00,1.1786
1730.00,1.1788
1729.00,1.1790
1728.00,1.1791
1727.00,1.1792
1726.00,1.1793
1725.00,1.1794
1724.00,1.1796
1723.00,1.1796
1722.00,1.1794
1721.00,1.1794
1720.00,1.1796
1719.00,1.1796
1718.00,1.1794
1717.00,1.1795
1716.00,1.1799
1715.00,1.1800
1714.00,1.1797
1713.00,1.1796
1712.00,1.1800
1711.00,1.1802
1710.00,1.1801
1709.00,1.1801
1708.00,1.1804
1707.00,1.1805
1706.00,1.1803
1705.00,1.1802
1704.00,1.1804
1703.00,1.1804
1702.00,1.1803
1701.00,1.1803
1700.00,1.1804
1699.00,1.1805
1698.00,1.1804
1697.00,1.1806
1696.00,1.1811
1695.00,1.1813
1694.00,1.1812
1693.00,1.1811
1692.00,1.1811
1691.00,1.1812
1690.00,1.1812
1689.00,1.1812
1688.00,1.1811
1687.00,1.1812
1686.00,1.1816
1685.00,1.1820
1684.00,1.1820
1683.00,1.1818
1682.00,1.1818
1681.00,1.1818
1680.00,1.1816
1679.00,1.1815
1678.00,1.1816
1677.00,1.1817
1676.00,1.1816
1675.00,1.1815
1674.00,1.1817
1673.00,1.1819
1672.00,1.1818
1671.00,1.1817
1670.00,1.1819
1669.00,1.1821
1668.00,1.1821
1667.00,1.1821
1666.00,1.1823
1665.00,1.1825
1664.00,1.1826
1663.00,1.1825
1662.00,1.1825
1661.00,1.1826
1660.00,1.1824
1659.00,1.1823
1658.00,1.1825
1657.00,1.1827
1656.00,1.1826
1655.00,1.1827
1654.00,1.1829
1653.00,1.1830
1652.00,1.1829
1651.00,1.1830
1650.00,1.1830
1649.00,1.1829
1648.00,1.1828
1647.00,1.1829
1646.00,1.1829
1645.00,1.1829
1644.00,1.1830
1643.00,1.1830
1642.00,1.1830
1641.00,1.1829
1640.00,1.1829
1639.00,1.1830
1638.00,1.1830
1637.00,1.1831
1636.00,1.1830
1635.00,1.1830
1634.00,1.1831
1633.00,1.1831
1632.00,1.1831
1631.00,1.1831
1630.00,1.1831
1629.00,1.1832
1628.00,1.1832
1627.00,1.1832
1626.00,1.1833
1625.00,1.1833
1624.00,1.1832
1623.00,1.1831
1622.00,1.1831
1621.00,1.1832
1620.00,1.1833
1619.00,1.1833
1618.00,1.1834
1617.00,1.1836
1616.00,1.1836
1615.00,1.1835
1614.00,1.1836
1613.00,1.1836
1612.00,1.1835
1611.00,1.1834
1610.00,1.1836
1609.00,1.1839
1608.00,1.1840
1607.00,1.1840
1606.00,1.1842
1605.00,1.1844
1604.00,1.1843
1603.00,1.1843
1602.00,1.1844
1601.00,1.1845
1600.00,1.1844
1599.00,1.1844
1598.00,1.1845
1597.00,1.1846
1596.00,1.1845
1595.00,1.1845
1594.00,1.1846
1593.00,1.1847
1592.00,1.1846
1591.00,1.1846
1590.00,1.1846
1589.00,1.1847
1588.00,1.1847
1587.00,1.1846
1586.00,1.1847
1585.00,1.1847
1584.00,1.1846
1583.00,1.1846
1582.00,1.1848
1581.00,1.1849
1580.00,1.1849
1579.00,1.1849
1578.00,1.1852
1577.00,1.1853
1576.00,1.1851
1575.00,1.1849
1574.00,1.1850
1573.00,1.1851
1572.00,1.1849
1571.00,1.1849
1570.00,1.1850
1569.00,1.1850
1568.00,1.1847
1567.00,1.1846
1566.00,1.1848
1565.00,1.1849
1564.00,1.1847
1563.00,1.1848
1562.00,1.1852
1561.00,1.1856
1560.00,1.1854
1559.00,1.1851
1558.00,1.1852
1557.00,1.1854
1556.00,1.1853
1555.00,1.1852
1554.00,1.1852
1553.00,1.1851
1552.00,1.1850
1551.00,1.1850
1550.00,1.1851
1549.00,1.1851
1548.00,1.1850
1547.00,1.1849
1546.00,1.1851
1545.00,1.1854
1544.00,1.1855
1543.00,1.1855
1542.00,1.1855
1541.00,1.1855
1540.00,1.1853
1539.00,1.1851
1538.00,1.1852
1537.00,1.1854
1536.00,1.1855
1535.00,1.1855
1534.00,1.1855
1533.00,1.1855
1532.00,1.1855
1531.00,1.1854
1530.00,1.1853
1529.00,1.1853
1528.00,1.1854
1527.00,1.1854
1526.00,1.1854
1525.00,1.1853
1524.00,1.1853
1523.00,1.1852
1522.00,1.1852
1521.00,1.1853
1520.00,1.1854
1519.00,1.1854
1518.00,1.1853
1517.00,1.1851
1516.00,1.1851
1515.00,1.1851
1514.00,1.1851
1513.00,1.1850
1512.00,1.1851
1511.00,1.1853
1510.00,1.1852
1509.00,1.1849
1508.00,1.1847
1507.00,1.1846
1506.00,1.1843
1505.00,1.1842
1504.00,1.1843
1503.00,1.1845
1502.00,1.1844
1501.00,1.1842
1500.00,1.1840
1499.00,1.1840
1498.00,1.1838
1497.00,1.1836
1496.00,1.1839
1495.00,1.1845
1494.00,1.1850
1493.00,1.1855
1492.00,1.1858
1491.00,1.1860
1490.00,1.1860
1489.00,1.1859
1488.00,1.1860
1487.00,1.1859
1486.00,1.1857
1485.00,1.1856
1484.00,1.1857
1483.00,1.1856
1482.00,1.1853
1481.00,1.1852
1480.00,1.1852
1479.00,1.1851
1478.00,1.1849
1477.00,1.1848
1476.00,1.1848
1475.00,1.1846
1474.00,1.1844
1473.00,1.1843
1472.00,1.1843
1471.00,1.1844
1470.00,1.1844
1469.00,1.1845
1468.00,1.1847
1467.00,1.1848
1466.00,1.1847
1465.00,1.1845
1464.00,1.1844
1463.00,1.1843
1462.00,1.1843
1461.00,1.1842
1460.00,1.1842
1459.00,1.1843
1458.00,1.1842
1457.00,1.1838
1456.00,1.1835
1455.00,1.1835
1454.00,1.1837
1453.00,1.1838
1452.00,1.1841
1451.00,1.1845
1450.00,1.1848
1449.00,1.1848
1448.00,1.1848
1447.00,1.1849
1446.00,1.1849
1445.00,1.1846
1444.00,1.1843
1443.00,1.1843
1442.00,1.1844
1441.00,1.1842
1440.00,1.1841
1439.00,1.1842
1438.00,1.1843
1437.00,1.1840
1436.00,1.1838
1435.00,1.1840
1434.00,1.1841
1433.00,1.1839
1432.00,1.1838
1431.00,1.1839
1430.00,1.1840
1429.00,1.1839
1428.00,1.1837
1427.00,1.1837
1426.00,1.1838
1425.00,1.1836
1424.00,1.1833
1423.00,1.1835
1422.00,1.1838
1421.00,1.1840
1420.00,1.1840
1419.00,1.1841
1418.00,1.1839
1417.00,1.1835
1416.00,1.1832
1415.00,1.1833
1414.00,1.1835
1413.00,1.1833
1412.00,1.1831
1411.00,1.1831
1410.00,1.1832
1409.00,1.1831
1408.00,1.1830
1407.00,1.1830
1406.00,1.1831
1405.00,1.1832
1404.00,1.1831
1403.00,1.1832
1402.00,1.1834
1401.00,1.1834
1400.00,1.1832
1399.00,1.1832
1398.00,1.1832
1397.00,1.1832
1396.00,1.1832
1395.00,1.1832
1394.00,1.1832
1393.00,1.1831
1392.00,1.1828
1391.00,1.1827
1390.00,1.1828
1389.00,1.1829
1388.00,1.1828
1387.00,1.1827
1386.00,1.1826
1385.00,1.1825
1384.00,1.1824
1383.00,1.1825
1382.00,1.1825
1381.00,1.1825
1380.00,1.1823
1379.00,1.1821
1378.00,1.1821
1377.00,1.1821
1376.00,1.1821
1375.00,1.1820
1374.00,1.1820
1373.00,1.1820
1372.00,1.1819
1371.00,1.1818
1370.00,1.1818
1369.00,1.1818
1368.00,1.1817
1367.00,1.1816
1366.00,1.1817
1365.00,1.1817
1364.00,1.1817
1363.00,1.1817
1362.00,1.1816
1361.00,1.1816
1360.00,1.1815
1359.00,1.1813
1358.00,1.1813
1357.00,1.1813
1356.00,1.1812
1355.00,1.1812
1354.00,1.1812
1353.00,1.1811
1352.00,1.1810
1351.00,1.1810
1350.00,1.1810
1349.00,1.1810
1348.00,1.1809
1347.00,1.1808
1346.00,1.1809
1345.00,1.1809
1344.00,1.1808
1343.00,1.1807
1342.00,1.1806
1341.00,1.1806
1340.00,1.1806
1339.00,1.1806
1338.00,1.1806
1337.00,1.1805
1336.00,1.1804
1335.00,1.1804
1334.00,1.1804
1333.00,1.1804
1332.00,1.1803
1331.00,1.1802
1330.00,1.1802
1329.00,1.1802
1328.00,1.1801
1327.00,1.1800
1326.00,1.1799
1325.00,1.1799
1324.00,1.1798
1323.00,1.1798
1322.00,1.1798
1321.00,1.1798
1320.00,1.1797
1319.00,1.1797
1318.00,1.1797
1317.00,1.1796
1316.00,1.1794
1315.00,1.1794
1314.00,1.1794
1313.00,1.1794
1312.00,1.1793
1311.00,1.1792
1310.00,1.1792
1309.00,1.1791
1308.00,1.1791
1307.00,1.1790
1306.00,1.1790
1305.00,1.1789
1304.00,1.1788
1303.00,1.1787
1302.00,1.1788
1301.00,1.1787
1300.00,1.1786
1299.00,1.1785
1298.00,1.1785
1297.00,1.1785
1296.00,1.1784
1295.00,1.1783
1294.00,1.1783
1293.00,1.1783
1292.00,1.1783
1291.00,1.1782
1290.00,1.1782
1289.00,1.1781
1288.00,1.1780
1287.00,1.1780
1286.00,1.1781
1285.00,1.1780
1284.00,1.1778
1283.00,1.1778
1282.00,1.1779
1281.00,1.1779
1280.00,1.1778
1279.00,1.1777
1278.00,1.1777
1277.00,1.1777
1276.00,1.1776
1275.00,1.1775
1274.00,1.1775
1273.00,1.1774
1272.00,1.1773
1271.00,1.1773
1270.00,1.1773
1269.00,1.1773
1268.00,1.1772
1267.00,1.1772
1266.00,1.1774
1265.00,1.1775
1264.00,1.1776
1263.00,1.1777
1262.00,1.1779
1261.00,1.1781
1260.00,1.1782
1259.00,1.1783
1258.00,1.1784
1257.00,1.1783
1256.00,1.1782
1255.00,1.1782
1254.00,1.1782
1253.00,1.1781
1252.00,1.1780
1251.00,1.1780
1250.00,1.1781
1249.00,1.1781
1248.00,1.1780
1247.00,1.1780
1246.00,1.1781
1245.00,1.1782
1244.00,1.1782
1243.00,1.1782
1242.00,1.1783
1241.00,1.1783
1240.00,1.1784
1239.00,1.1785
1238.00,1.1786
1237.00,1.1786
1236.00,1.1786
1235.00,1.1786
1234.00,1.1788
1233.00,1.1789
1232.00,1.1789
1231.00,1.1788
1230.00,1.1789
1229.00,1.1789
1228.00,1.1789
1227.00,1.1789
1226.00,1.1789
1225.00,1.1789
1224.00,1.1789
1223.00,1.1790
1222.00,1.1791
1221.00,1.1791
1220.00,1.1790
1219.00,1.1791
1218.00,1.1792
1217.00,1.1793
1216.00,1.1793
1215.00,1.1793
1214.00,1.1794
1213.00,1.1795
1212.00,1.1795
1211.00,1.1795
1210.00,1.1795
1209.00,1.1795
1208.00,1.1795
1207.00,1.1796
1206.00,1.1797
1205.00,1.1798
1204.00,1.1798
1203.00,1.1798
1202.00,1.1799
1201.00,1.1800
1200.00,1.1800
1199.00,1.1800
1198.00,1.1801
1197.00,1.1803
1196.00,1.1803
1195.00,1.1803
1194.00,1.1804
1193.00,1.1805
1192.00,1.1805
1191.00,1.1807
1190.00,1.1808
1189.00,1.1809
1188.00,1.1809
1187.00,1.1810
1186.00,1.1812
1185.00,1.1812
1184.00,1.1811
1183.00,1.1810
1182.00,1.1812
1181.00,1.1814
1180.00,1.1816
1179.00,1.1818
1178.00,1.1819
1177.00,1.1819
1176.00,1.1819
1175.00,1.1820
1174.00,1.1821
1173.00,1.1821
1172.00,1.1822
1171.00,1.1823
1170.00,1.1826
1169.00,1.1827
1168.00,1.1827
1167.00,1.1827
1166.00,1.1829
1165.00,1.1830
1164.00,1.1831
1163.00,1.1831
1162.00,1.1832
1161.00,1.1832
1160.00,1.1832
1159.00,1.1833
1158.00,1.1833
1157.00,1.1833
1156.00,1.1833
1155.00,1.1834
1154.00,1.1836
1153.00,1.1836
1152.00,1.1835
1151.00,1.1835
1150.00,1.1836
1149.00,1.1837
1148.00,1.1837
1147.00,1.1837
1146.00,1.1836
1145.00,1.1837
1144.00,1.1837
1143.00,1.1837
1142.00,1.1837
1141.00,1.1837
1140.00,1.1835
1139.00,1.1835
1138.00,1.1835
1137.00,1.1835
1136.00,1.1834
1135.00,1.1834
1134.00,1.1835
1133.00,1.1835
1132.00,1.1834
1131.00,1.1833
1130.00,1.1832
1129.00,1.1831
1128.00,1.1831
1127.00,1.1831
1126.00,1.1832
1125.00,1.1832
1124.00,1.1832
1123.00,1.1832
1122.00,1.1832
1121.00,1.1830
1120.00,1.1827
1119.00,1.1826
1118.00,1.1827
1117.00,1.1827
1116.00,1.1826
1115.00,1.1824
1114.00,1.1823
1113.00,1.1822
1112.00,1.1821
1111.00,1.1820
1110.00,1.1819
1109.00,1.1818
1108.00,1.1818
1107.00,1.1818
1106.00,1.1819
1105.00,1.1817
1104.00,1.1814
1103.00,1.1812
1102.00,1.1812
1101.00,1.1813
1100.00,1.1812
1099.00,1.1811
1098.00,1.1810
1097.00,1.1809
1096.00,1.1807
1095.00,1.1804
1094.00,1.1801
1093.00,1.1798
1092.00,1.1795
1091.00,1.1794
1090.00,1.1794
1089.00,1.1792
1088.00,1.1789
1087.00,1.1787
1086.00,1.1787
1085.00,1.1786
1084.00,1.1783
1083.00,1.1779
1082.00,1.1777
1081.00,1.1776
1080.00,1.1773
1079.00,1.1770
1078.00,1.1767
1077.00,1.1762
1076.00,1.1757
1075.00,1.1754
1074.00,1.1752
1073.00,1.1749
1072.00,1.1744
1071.00,1.1742
1070.00,1.1743
1069.00,1.1742
1068.00,1.1738
1067.00,1.1733
1066.00,1.1729
1065.00,1.1726
1064.00,1.1722
1063.00,1.1718
1062.00,1.1714
1061.00,1.1710
1060.00,1.1705
1059.00,1.1702
1058.00,1.1699
1057.00,1.1693
1056.00,1.1686
1055.00,1.1682
1054.00,1.1682
1053.00,1.1680
1052.00,1.1676
1051.00,1.1671
1050.00,1.1669
1049.00,1.1667
1048.00,1.1665
1047.00,1.1662
1046.00,1.1656
1045.00,1.1648
1044.00,1.1641
1043.00,1.1637
1042.00,1.1635
1041.00,1.1630
1040.00,1.1624
1039.00,1.1621
1038.00,1.1620
1037.00,1.1618
1036.00,1.1612
1035.00,1.1604
1034.00,1.1598
1033.00,1.1594
1032.00,1.1590
1031.00,1.1586
1030.00,1.1582
1029.00,1.1577
1028.00,1.1573
1027.00,1.1569
1026.00,1.1566
1025.00,1.1560
1024.00,1.1553
1023.00,1.1550
1022.00,1.1550
1021.00,1.1548
1020.00,1.1542
1019.00,1.1535
1018.00,1.1532
1017.00,1.1529
1016.00,1.1525
1015.00,1.1520
1014.00,1.1515
1013.00,1.1510
1012.00,1.1506
1011.00,1.1504
1010.00,1.1502
1009.00,1.1498
1008.00,1.1491
1007.00,1.1486
1006.00,1.1485
1005.00,1.1482
1004.00,1.1476
1003.00,1.1469
1002.00,1.1467
1001.00,1.1467
1000.00,1.1466
