Created as New Dataset,Sample 031 By Administrator Date Monday, February 10 2020
cm-1,A
6000.00,1.1413
5999.00,1.1413
5998.00,1.1413
5997.00,1.1413
5996.00,1.1413
5995.00,1.1414
5994.00,1.1414
5993.00,1.1414
5992.00,1.1413
5991.00,1.1413
5990.00,1.1413
5989.00,1.1412
5988.00,1.1411
5987.00,1.1411
5986.00,1.1411
5985.00,1.1411
5984.00,1.1411
5983.00,1.1411
5982.00,1.1411
5981.00,1.1410
5980.00,1.1409
5979.00,1.1409
5978.00,1.1409
5977.00,1.1409
5976.00,1.1409
5975.00,1.1409
5974.00,1.1409
5973.00,1.1409
5972.00,1.1409
5971.00,1.1409
5970.00,1.1409
5969.00,1.1409
5968.00,1.1410
5967.00,1.1412
5966.00,1.1412
5965.00,1.1412
5964.00,1.1412
5963.00,1.1411
5962.00,1.1409
5961.00,1.1408
5960.00,1.1407
5959.00,1.1407
5958.00,1.1406
5957.00,1.1406
5956.00,1.1406
5955.00,1.1407
5954.00,1.1406
5953.00,1.1405
5952.00,1.1405
5951.00,1.1405
5950.00,1.1405
5949.00,1.1406
5948.00,1.1406
5947.00,1.1407
5946.00,1.1406
5945.00,1.1405
5944.00,1.1404
5943.00,1.1404
5942.00,1.1404
5941.00,1.1405
5940.00,1.1405
5939.00,1.1406
5938.00,1.1406
5937.00,1.1406
5936.00,1.1406
5935.00,1.1405
5934.00,1.1404
5933.00,1.1402
5932.00,1.1402
5931.00,1.1402
5930.00,1.1401
5929.00,1.1401
5928.00,1.1401
5927.00,1.1402
5926.00,1.1402
5925.00,1.1403
5924.00,1.1403
5923.00,1.1404
5922.00,1.1405
5921.00,1.1405
5920.00,1.1405
5919.00,1.1405
5918.00,1.1404
5917.00,1.1403
5916.00,1.1402
5915.00,1.1403
5914.00,1.1403
5913.00,1.1403
5912.00,1.1404
5911.00,1.1405
5910.00,1.1405
5909.00,1.1404
5908.00,1.1403
5907.00,1.1402
5906.00,1.1402
5905.00,1.1402
5904.00,1.1402
5903.00,1.1402
5902.00,1.1402
5901.00,1.1402
5900.00,1.1402
5899.00,1.1402
5898.00,1.1402
5897.00,1.1402
5896.00,1.1402
5895.00,1.1403
5894.00,1.1403
5893.00,1.1403
5892.00,1.1402
5891.00,1.1402
5890.00,1.1401
5889.00,1.1399
5888.00,1.1398
5887.00,1.1397
5886.00,1.1396
5885.00,1.1396
5884.00,1.1397
5883.00,1.1398
5882.00,1.1399
5881.00,1.1400
5880.00,1.1400
5879.00,1.1401
5878.00,1.1400
5877.00,1.1399
5876.00,1.1399
5875.00,1.1398
5874.00,1.1398
5873.00,1.1398
5872.00,1.1398
5871.00,1.1399
5870.00,1.1399
5869.00,1.1399
5868.00,1.1398
5867.00,1.1397
5866.00,1.1395
5865.00,1.1393
5864.00,1.1391
5863.00,1.1391
5862.00,1.1392
5861.00,1.1393
5860.00,1.1393
5859.00,1.1394
5858.00,1.1394
5857.00,1.1395
5856.00,1.1395
5855.00,1.1395
5854.00,1.1396
5853.00,1.1396
5852.00,1.1397
5851.00,1.1397
5850.00,1.1396
5849.00,1.1395
5848.00,1.1394
5847.00,1.1393
5846.00,1.1393
5845.00,1.1393
5844.00,1.1394
5843.00,1.1395
5842.00,1.1395
5841.00,1.1395
5840.00,1.1396
5839.00,1.1397
5838.00,1.1397
5837.00,1.1396
5836.00,1.1396
5835.00,1.1396
5834.00,1.1395
5833.00,1.1394
5832.00,1.1394
5831.00,1.1394
5830.00,1.1395
5829.00,1.1395
5828.00,1.1396
5827.00,1.1397
5826.00,1.1397
5825.00,1.1396
5824.00,1.1396
5823.00,1.1396
5822.00,1.1396
5821.00,1.1396
5820.00,1.1396
5819.00,1.1396
5818.00,1.1396
5817.00,1.1395
5816.00,1.1394
5815.00,1.1394
5814.00,1.1394
5813.00,1.1393
5812.00,1.1393
5811.00,1.1393
5810.00,1.1393
5809.00,1.1394
5808.00,1.1395
5807.00,1.1395
5806.00,1.1396
5805.00,1.1396
5804.00,1.1397
5803.00,1.1397
5802.00,1.1397
5801.00,1.1396
5800.00,1.1396
5799.00,1.1396
5798.00,1.1396
5797.00,1.1395
5796.00,1.1394
5795.00,1.1394
5794.00,1.1393
5793.00,1.1392
5792.00,1.1393
5791.00,1.1393
5790.00,1.1394
5789.00,1.1395
5788.00,1.1395
5787.00,1.1395
5786.00,1.1395
5785.00,1.1395
5784.00,1.1394
5783.00,1.1393
5782.00,1.1392
5781.00,1.1392
5780.00,1.1393
5779.00,1.1393
5778.00,1.1393
5777.00,1.1393
5776.00,1.1392
5775.00,1.1392
5774.00,1.1391
5773.00,1.1390
5772.00,1.1390
5771.00,1.1390
5770.00,1.1391
5769.00,1.1392
5768.00,1.1393
5767.00,1.1394
5766.00,1.1394
5765.00,1.1393
5764.00,1.1392
5763.00,1.1391
5762.00,1.1390
5761.00,1.1390
5760.00,1.1390
5759.00,1.1390
5758.00,1.1390
5757.00,1.1389
5756.00,1.1389
5755.00,1.1388
5754.00,1.1388
5753.00,1.1388
5752.00,1.1389
5751.00,1.1391
5750.00,1.1392
5749.00,1.1392
5748.00,1.1393
5747.00,1.1393
5746.00,1.1393
5745.00,1.1393
5744.00,1.1392
5743.00,1.1392
5742.00,1.1392
5741.00,1.1391
5740.00,1.1391
5739.00,1.1391
5738.00,1.1391
5737.00,1.1391
5736.00,1.1391
5735.00,1.1391
5734.00,1.1392
5733.00,1.1392
5732.00,1.1391
5731.00,1.1391
5730.00,1.1390
5729.00,1.1388
5728.00,1.1387
5727.00,1.1387
5726.00,1.1387
5725.00,1.1388
5724.00,1.1388
5723.00,1.1388
5722.00,1.1388
5721.00,1.1387
5720.00,1.1386
5719.00,1.1386
5718.00,1.1385
5717.00,1.1386
5716.00,1.1386
5715.00,1.1387
5714.00,1.1388
5713.00,1.1388
5712.00,1.1387
5711.00,1.1387
5710.00,1.1386
5709.00,1.1386
5708.00,1.1386
5707.00,1.1386
5706.00,1.1387
5705.00,1.1387
5704.00,1.1387
5703.00,1.1387
5702.00,1.1387
5701.00,1.1386
5700.00,1.1385
5699.00,1.1385
5698.00,1.1385
5697.00,1.1384
5696.00,1.1385
5695.00,1.1386
5694.00,1.1387
5693.00,1.1388
5692.00,1.1389
5691.00,1.1390
5690.00,1.1390
5689.00,1.1389
5688.00,1.1388
5687.00,1.1388
5686.00,1.1387
5685.00,1.1387
5684.00,1.1387
5683.00,1.1387
5682.00,1.1387
5681.00,1.1386
5680.00,1.1386
5679.00,1.1386
5678.00,1.1386
5677.00,1.1386
5676.00,1.1386
5675.00,1.1385
5674.00,1.1384
5673.00,1.1383
5672.00,1.1383
5671.00,1.1383
5670.00,1.1384
5669.00,1.1385
5668.00,1.1387
5667.00,1.1388
5666.00,1.1388
5665.00,1.1387
5664.00,1.1386
5663.00,1.1385
5662.00,1.1384
5661.00,1.1384
5660.00,1.1383
5659.00,1.1384
5658.00,1.1384
5657.00,1.1383
5656.00,1.1384
5655.00,1.1384
5654.00,1.1384
5653.00,1.1385
5652.00,1.1385
5651.00,1.1386
5650.00,1.1387
5649.00,1.1387
5648.00,1.1388
5647.00,1.1388
5646.00,1.1388
5645.00,1.1388
5644.00,1.1387
5643.00,1.1387
5642.00,1.1386
5641.00,1.1385
5640.00,1.1385
5639.00,1.1385
5638.00,1.1385
5637.00,1.1385
5636.00,1.1385
5635.00,1.1386
5634.00,1.1386
5633.00,1.1385
5632.00,1.1385
5631.00,1.1385
5630.00,1.1384
5629.00,1.1383
5628.00,1.1382
5627.00,1.1382
5626.00,1.1382
5625.00,1.1383
5624.00,1.1383
5623.00,1.1384
5622.00,1.1384
5621.00,1.1384
5620.00,1.1384
5619.00,1.1384
5618.00,1.1384
5617.00,1.1383
5616.00,1.1382
5615.00,1.1382
5614.00,1.1382
5613.00,1.1382
5612.00,1.1381
5611.00,1.1382
5610.00,1.1382
5609.00,1.1382
5608.00,1.1382
5607.00,1.1383
5606.00,1.1384
5605.00,1.1384
5604.00,1.1384
5603.00,1.1384
5602.00,1.1383
5601.00,1.1383
5600.00,1.1382
5599.00,1.1382
5598.00,1.1382
5597.00,1.1382
5596.00,1.1383
5595.00,1.1383
5594.00,1.1383
5593.00,1.1383
5592.00,1.1382
5591.00,1.1382
5590.00,1.1381
5589.00,1.1381
5588.00,1.1381
5587.00,1.1382
5586.00,1.1382
5585.00,1.1382
5584.00,1.1382
5583.00,1.1382
5582.00,1.1382
5581.00,1.1381
5580.00,1.1381
5579.00,1.1382
5578.00,1.1382
5577.00,1.1382
5576.00,1.1381
5575.00,1.1381
5574.00,1.1381
5573.00,1.1381
5572.00,1.1381
5571.00,1.1380
5570.00,1.1380
5569.00,1.1379
5568.00,1.1378
5567.00,1.1379
5566.00,1.1379
5565.00,1.1379
5564.00,1.1380
5563.00,1.1380
5562.00,1.1380
5561.00,1.1381
5560.00,1.1381
5559.00,1.1382
5558.00,1.1382
5557.00,1.1382
5556.00,1.1381
5555.00,1.1381
5554.00,1.1380
5553.00,1.1379
5552.00,1.1378
5551.00,1.1377
5550.00,1.1377
5549.00,1.1377
5548.00,1.1377
5547.00,1.1378
5546.00,1.1379
5545.00,1.1379
5544.00,1.1379
5543.00,1.1379
5542.00,1.1379
5541.00,1.1379
5540.00,1.1380
5539.00,1.1380
5538.00,1.1380
5537.00,1.1380
5536.00,1.1380
5535.00,1.1380
5534.00,1.1381
5533.00,1.1381
5532.00,1.1381
5531.00,1.1380
5530.00,1.1379
5529.00,1.1378
5528.00,1.1378
5527.00,1.1378
5526.00,1.1379
5525.00,1.1379
5524.00,1.1379
5523.00,1.1379
5522.00,1.1379
5521.00,1.1379
5520.00,1.1380
5519.00,1.1380
5518.00,1.1380
5517.00,1.1379
5516.00,1.1378
5515.00,1.1378
5514.00,1.1377
5513.00,1.1376
5512.00,1.1376
5511.00,1.1377
5510.00,1.1378
5509.00,1.1378
5508.00,1.1378
5507.00,1.1378
5506.00,1.1378
5505.00,1.1377
5504.00,1.1376
5503.00,1.1376
5502.00,1.1376
5501.00,1.1375
5500.00,1.1375
5499.00,1.1375
5498.00,1.1375
5497.00,1.1376
5496.00,1.1376
5495.00,1.1376
5494.00,1.1375
5493.00,1.1375
5492.00,1.1375
5491.00,1.1375
5490.00,1.1375
5489.00,1.1375
5488.00,1.1376
5487.00,1.1376
5486.00,1.1376
5485.00,1.1376
5484.00,1.1375
5483.00,1.1374
5482.00,1.1374
5481.00,1.1373
5480.00,1.1373
5479.00,1.1374
5478.00,1.1374
5477.00,1.1373
5476.00,1.1372
5475.00,1.1372
5474.00,1.1372
5473.00,1.1372
5472.00,1.1372
5471.00,1.1372
5470.00,1.1372
5469.00,1.1372
5468.00,1.1372
5467.00,1.1372
5466.00,1.1372
5465.00,1.1372
5464.00,1.1372
5463.00,1.1372
5462.00,1.1372
5461.00,1.1372
5460.00,1.1372
5459.00,1.1373
5458.00,1.1373
5457.00,1.1372
5456.00,1.1372
5455.00,1.1372
5454.00,1.1372
5453.00,1.1371
5452.00,1.1371
5451.00,1.1371
5450.00,1.1371
5449.00,1.1372
5448.00,1.1372
5447.00,1.1372
5446.00,1.1371
5445.00,1.1371
5444.00,1.1372
5443.00,1.1372
5442.00,1.1371
5441.00,1.1370
5440.00,1.1371
5439.00,1.1372
5438.00,1.1373
5437.00,1.1373
5436.00,1.1373
5435.00,1.1373
5434.00,1.1373
5433.00,1.1374
5432.00,1.1374
5431.00,1.1373
5430.00,1.1372
5429.00,1.1371
5428.00,1.1372
5427.00,1.1372
5426.00,1.1372
5425.00,1.1371
5424.00,1.1371
5423.00,1.1372
5422.00,1.1373
5421.00,1.1373
5420.00,1.1373
5419.00,1.1373
5418.00,1.1373
5417.00,1.1373
5416.00,1.1373
5415.00,1.1372
5414.00,1.1371
5413.00,1.1371
5412.00,1.1371
5411.00,1.1370
5410.00,1.1368
5409.00,1.1368
5408.00,1.1368
5407.00,1.1369
5406.00,1.1368
5405.00,1.1368
5404.00,1.1368
5403.00,1.1369
5402.00,1.1369
5401.00,1.1370
5400.00,1.1370
5399.00,1.1371
5398.00,1.1372
5397.00,1.1372
5396.00,1.1372
5395.00,1.1370
5394.00,1.1369
5393.00,1.1367
5392.00,1.1367
5391.00,1.1368
5390.00,1.1368
5389.00,1.1369
5388.00,1.1370
5387.00,1.1371
5386.00,1.1371
5385.00,1.1370
5384.00,1.1369
5383.00,1.1368
5382.00,1.1367
5381.00,1.1367
5380.00,1.1367
5379.00,1.1367
5378.00,1.1367
5377.00,1.1367
5376.00,1.1368
5375.00,1.1369
5374.00,1.1369
5373.00,1.1369
5372.00,1.1369
5371.00,1.1369
5370.00,1.1369
5369.00,1.1369
5368.00,1.1369
5367.00,1.1369
5366.00,1.1369
5365.00,1.1369
5364.00,1.1368
5363.00,1.1369
5362.00,1.1369
5361.00,1.1369
5360.00,1.1369
5359.00,1.1369
5358.00,1.1369
5357.00,1.1369
5356.00,1.1369
5355.00,1.1369
5354.00,1.1369
5353.00,1.1369
5352.00,1.1370
5351.00,1.1369
5350.00,1.1369
5349.00,1.1369
5348.00,1.1369
5347.00,1.1369
5346.00,1.1369
5345.00,1.1368
5344.00,1.1368
5343.00,1.1369
5342.00,1.1370
5341.00,1.1370
5340.00,1.1369
5339.00,1.1369
5338.00,1.1369
5337.00,1.1370
5336.00,1.1370
5335.00,1.1370
5334.00,1.1370
5333.00,1.1370
5332.00,1.1371
5331.00,1.1372
5330.00,1.1372
5329.00,1.1371
5328.00,1.1370
5327.00,1.1370
5326.00,1.1371
5325.00,1.1371
5324.00,1.1372
5323.00,1.1372
5322.00,1.1372
5321.00,1.1372
5320.00,1.1371
5319.00,1.1371
5318.00,1.1370
5317.00,1.1370
5316.00,1.1371
5315.00,1.1372
5314.00,1.1372
5313.00,1.1372
5312.00,1.1372
5311.00,1.1372
5310.00,1.1372
5309.00,1.1371
5308.00,1.1371
5307.00,1.1372
5306.00,1.1373
5305.00,1.1373
5304.00,1.1373
5303.00,1.1374
5302.00,1.1375
5301.00,1.1375
5300.00,1.1375
5299.00,1.1376
5298.00,1.1376
5297.00,1.1375
5296.00,1.1375
5295.00,1.1375
5294.00,1.1375
5293.00,1.1376
5292.00,1.1375
5291.00,1.1375
5290.00,1.1375
5289.00,1.1376
5288.00,1.1376
5287.00,1.1377
5286.00,1.1377
5285.00,1.1377
5284.00,1.1378
5283.00,1.1378
5282.00,1.1378
5281.00,1.1378
5280.00,1.1378
5279.00,1.1378
5278.00,1.1379
5277.00,1.1379
5276.00,1.1379
5275.00,1.1379
5274.00,1.1379
5273.00,1.1379
5272.00,1.1379
5271.00,1.1379
5270.00,1.1379
5269.00,1.1379
5268.00,1.1380
5267.00,1.1381
5266.00,1.1381
5265.00,1.1382
5264.00,1.1382
5263.00,1.1383
5262.00,1.1384
5261.00,1.1384
5260.00,1.1383
5259.00,1.1384
5258.00,1.1385
5257.00,1.1385
5256.00,1.1385
5255.00,1.1386
5254.00,1.1386
5253.00,1.1387
5252.00,1.1388
5251.00,1.1389
5250.00,1.1389
5249.00,1.1389
5248.00,1.1389
5247.00,1.1390
5246.00,1.1389
5245.00,1.1389
5244.00,1.1389
5243.00,1.1390
5242.00,1.1392
5241.00,1.1393
5240.00,1.1394
5239.00,1.1395
5238.00,1.1395
5237.00,1.1396
5236.00,1.1396
5235.00,1.1396
5234.00,1.1396
5233.00,1.1396
5232.00,1.1395
5231.00,1.1396
5230.00,1.1396
5229.00,1.1397
5228.00,1.1398
5227.00,1.1399
5226.00,1.1399
5225.00,1.1400
5224.00,1.1401
5223.00,1.1402
5222.00,1.1402
5221.00,1.1403
5220.00,1.1403
5219.00,1.1404
5218.00,1.1405
5217.00,1.1405
5216.00,1.1406
5215.00,1.1407
5214.00,1.1408
5213.00,1.1409
5212.00,1.1410
5211.00,1.1410
5210.00,1.1410
5209.00,1.1410
5208.00,1.1409
5207.00,1.1410
5206.00,1.1410
5205.00,1.1411
5204.00,1.1412
5203.00,1.1412
5202.00,1.1413
5201.00,1.1414
5200.00,1.1416
5199.00,1.1417
5198.00,1.1417
5197.00,1.1418
5196.00,1.1418
5195.00,1.1419
5194.00,1.1419
5193.00,1.1419
5192.00,1.1419
5191.00,1.1420
5190.00,1.1420
5189.00,1.1421
5188.00,1.1422
5187.00,1.1423
5186.00,1.1424
5185.00,1.1424
5184.00,1.1425
5183.00,1.1426
5182.00,1.1426
5181.00,1.1426
5180.00,1.1426
5179.00,1.1427
5178.00,1.1427
5177.00,1.1428
5176.00,1.1429
5175.00,1.1430
5174.00,1.1430
5173.00,1.1431
5172.00,1.1431
5171.00,1.1431
5170.00,1.1431
5169.00,1.1431
5168.00,1.1432
5167.00,1.1433
5166.00,1.1434
5165.00,1.1435
5164.00,1.1436
5163.00,1.1437
5162.00,1.1438
5161.00,1.1438
5160.00,1.1439
5159.00,1.1439
5158.00,1.1439
5157.00,1.1440
5156.00,1.1441
5155.00,1.1441
5154.00,1.1442
5153.00,1.1442
5152.00,1.1442
5151.00,1.1442
5150.00,1.1443
5149.00,1.1443
5148.00,1.1444
5147.00,1.1445
5146.00,1.1446
5145.00,1.1446
5144.00,1.1447
5143.00,1.1447
5142.00,1.1447
5141.00,1.1448
5140.00,1.1448
5139.00,1.1449
5138.00,1.1449
5137.00,1.1450
5136.00,1.1450
5135.00,1.1450
5134.00,1.1451
5133.00,1.1451
5132.00,1.1451
5131.00,1.1451
5130.00,1.1451
5129.00,1.1451
5128.00,1.1452
5127.00,1.1453
5126.00,1.1453
5125.00,1.1453
5124.00,1.1454
5123.00,1.1454
5122.00,1.1454
5121.00,1.1455
5120.00,1.1455
5119.00,1.1455
5118.00,1.1455
5117.00,1.1455
5116.00,1.1455
5115.00,1.1455
5114.00,1.1456
5113.00,1.1456
5112.00,1.1456
5111.00,1.1457
5110.00,1.1456
5109.00,1.1456
5108.00,1.1455
5107.00,1.1455
5106.00,1.1456
5105.00,1.1456
5104.00,1.1456
5103.00,1.1457
5102.00,1.1457
5101.00,1.1457
5100.00,1.1457
5099.00,1.1457
5098.00,1.1457
5097.00,1.1457
5096.00,1.1457
5095.00,1.1457
5094.00,1.1457
5093.00,1.1457
5092.00,1.1457
5091.00,1.1458
5090.00,1.1458
5089.00,1.1458
5088.00,1.1458
5087.00,1.1459
5086.00,1.1459
5085.00,1.1458
5084.00,1.1459
5083.00,1.1459
5082.00,1.1460
5081.00,1.1461
5080.00,1.1461
5079.00,1.1461
5078.00,1.1460
5077.00,1.1459
5076.00,1.1458
5075.00,1.1458
5074.00,1.1458
5073.00,1.1458
5072.00,1.1459
5071.00,1.1461
5070.00,1.1461
5069.00,1.1462
5068.00,1.1462
5067.00,1.1462
5066.00,1.1461
5065.00,1.1461
5064.00,1.1460
5063.00,1.1459
5062.00,1.1458
5061.00,1.1458
5060.00,1.1459
5059.00,1.1460
5058.00,1.1460
5057.00,1.1461
5056.00,1.1461
5055.00,1.1461
5054.00,1.1461
5053.00,1.1460
5052.00,1.1461
5051.00,1.1461
5050.00,1.1461
5049.00,1.1461
5048.00,1.1461
5047.00,1.1462
5046.00,1.1462
5045.00,1.1462
5044.00,1.1461
5043.00,1.1461
5042.00,1.1461
5041.00,1.1461
5040.00,1.1461
5039.00,1.1461
5038.00,1.1462
5037.00,1.1462
5036.00,1.1462
5035.00,1.1462
5034.00,1.1461
5033.00,1.1461
5032.00,1.1460
5031.00,1.1460
5030.00,1.1460
5029.00,1.1460
5028.00,1.1460
5027.00,1.1461
5026.00,1.1461
5025.00,1.1461
5024.00,1.1461
5023.00,1.1460
5022.00,1.1460
5021.00,1.1460
5020.00,1.1460
5019.00,1.1460
5018.00,1.1460
5017.00,1.1460
5016.00,1.1461
5015.00,1.1461
5014.00,1.1461
5013.00,1.1461
5012.00,1.1461
5011.00,1.1461
5010.00,1.1461
5009.00,1.1460
5008.00,1.1460
5007.00,1.1459
5006.00,1.1459
5005.00,1.1459
5004.00,1.1458
5003.00,1.1458
5002.00,1.1458
5001.00,1.1459
5000.00,1.1459
4999.00,1.1459
4998.00,1.1459
4997.00,1.1459
4996.00,1.1459
4995.00,1.1459
4994.00,1.1459
4993.00,1.1459
4992.00,1.1459
4991.00,1.1459
4990.00,1.1459
4989.00,1.1458
4988.00,1.1458
4987.00,1.1458
4986.00,1.1457
4985.00,1.1456
4984.00,1.1456
4983.00,1.1456
4982.00,1.1457
4981.00,1.1457
4980.00,1.1457
4979.00,1.1456
4978.00,1.1456
4977.00,1.1456
4976.00,1.1455
4975.00,1.1456
4974.00,1.1456
4973.00,1.1456
4972.00,1.1457
4971.00,1.1457
4970.00,1.1458
4969.00,1.1458
4968.00,1.1458
4967.00,1.1458
4966.00,1.1457
4965.00,1.1456
4964.00,1.1455
4963.00,1.1454
4962.00,1.1454
4961.00,1.1455
4960.00,1.1456
4959.00,1.1457
4958.00,1.1457
4957.00,1.1457
4956.00,1.1456
4955.00,1.1456
4954.00,1.1455
4953.00,1.1455
4952.00,1.1454
4951.00,1.1454
4950.00,1.1454
4949.00,1.1454
4948.00,1.1454
4947.00,1.1454
4946.00,1.1455
4945.00,1.1455
4944.00,1.1455
4943.00,1.1454
4942.00,1.1454
4941.00,1.1453
4940.00,1.1453
4939.00,1.1452
4938.00,1.1452
4937.00,1.1452
4936.00,1.1452
4935.00,1.1452
4934.00,1.1452
4933.00,1.1451
4932.00,1.1451
4931.00,1.1451
4930.00,1.1451
4929.00,1.1451
4928.00,1.1451
4927.00,1.1451
4926.00,1.1451
4925.00,1.1450
4924.00,1.1450
4923.00,1.1450
4922.00,1.1450
4921.00,1.1450
4920.00,1.1450
4919.00,1.1450
4918.00,1.1450
4917.00,1.1449
4916.00,1.1448
4915.00,1.1448
4914.00,1.1447
4913.00,1.1446
4912.00,1.1446
4911.00,1.1446
4910.00,1.1446
4909.00,1.1446
4908.00,1.1445
4907.00,1.1445
4906.00,1.1445
4905.00,1.1445
4904.00,1.1445
4903.00,1.1445
4902.00,1.1445
4901.00,1.1445
4900.00,1.1445
4899.00,1.1445
4898.00,1.1444
4897.00,1.1444
4896.00,1.1443
4895.00,1.1443
4894.00,1.1442
4893.00,1.1442
4892.00,1.1441
4891.00,1.1441
4890.00,1.1441
4889.00,1.1441
4888.00,1.1441
4887.00,1.1441
4886.00,1.1441
4885.00,1.1441
4884.00,1.1441
4883.00,1.1440
4882.00,1.1440
4881.00,1.1440
4880.00,1.1440
4879.00,1.1440
4878.00,1.1440
4877.00,1.1440
4876.00,1.1439
4875.00,1.1439
4874.00,1.1439
4873.00,1.1439
4872.00,1.1439
4871.00,1.1439
4870.00,1.1438
4869.00,1.1438
4868.00,1.1438
4867.00,1.1437
4866.00,1.1437
4865.00,1.1437
4864.00,1.1436
4863.00,1.1436
4862.00,1.1436
4861.00,1.1436
4860.00,1.1436
4859.00,1.1437
4858.00,1.1437
4857.00,1.1436
4856.00,1.1436
4855.00,1.1436
4854.00,1.1435
4853.00,1.1435
4852.00,1.1434
4851.00,1.1434
4850.00,1.1434
4849.00,1.1434
4848.00,1.1433
4847.00,1.1433
4846.00,1.1433
4845.00,1.1433
4844.00,1.1433
4843.00,1.1433
4842.00,1.1432
4841.00,1.1432
4840.00,1.1432
4839.00,1.1432
4838.00,1.1432
4837.00,1.1432
4836.00,1.1432
4835.00,1.1431
4834.00,1.1431
4833.00,1.1430
4832.00,1.1430
4831.00,1.1430
4830.00,1.1429
4829.00,1.1429
4828.00,1.1429
4827.00,1.1428
4826.00,1.1428
4825.00,1.1428
4824.00,1.1428
4823.00,1.1427
4822.00,1.1427
4821.00,1.1427
4820.00,1.1427
4819.00,1.1427
4818.00,1.1426
4817.00,1.1425
4816.00,1.1425
4815.00,1.1424
4814.00,1.1424
4813.00,1.1424
4812.00,1.1424
4811.00,1.1423
4810.00,1.1423
4809.00,1.1422
4808.00,1.1422
4807.00,1.1422
4806.00,1.1422
4805.00,1.1421
4804.00,1.1421
4803.00,1.1420
4802.00,1.1420
4801.00,1.1419
4800.00,1.1419
4799.00,1.1419
4798.00,1.1419
4797.00,1.1419
4796.00,1.1418
4795.00,1.1418
4794.00,1.1417
4793.00,1.1417
4792.00,1.1417
4791.00,1.1417
4790.00,1.1416
4789.00,1.1416
4788.00,1.1415
4787.00,1.1415
4786.00,1.1414
4785.00,1.1414
4784.00,1.1414
4783.00,1.1415
4782.00,1.1415
4781.00,1.1415
4780.00,1.1415
4779.00,1.1415
4778.00,1.1414
4777.00,1.1413
4776.00,1.1413
4775.00,1.1413
4774.00,1.1413
4773.00,1.1413
4772.00,1.1413
4771.00,1.1412
4770.00,1.1412
4769.00,1.1411
4768.00,1.1411
4767.00,1.1410
4766.00,1.1409
4765.00,1.1408
4764.00,1.1408
4763.00,1.1407
4762.00,1.1407
4761.00,1.1407
4760.00,1.1406
4759.00,1.1406
4758.00,1.1405
4757.00,1.1405
4756.00,1.1404
4755.00,1.1403
4754.00,1.1402
4753.00,1.1401
4752.00,1.1400
4751.00,1.1399
4750.00,1.1398
4749.00,1.1397
4748.00,1.1396
4747.00,1.1396
4746.00,1.1394
4745.00,1.1393
4744.00,1.1393
4743.00,1.1392
4742.00,1.1391
4741.00,1.1391
4740.00,1.1391
4739.00,1.1390
4738.00,1.1390
4737.00,1.1389
4736.00,1.1389
4735.00,1.1388
4734.00,1.1388
4733.00,1.1387
4732.00,1.1387
4731.00,1.1387
4730.00,1.1386
4729.00,1.1386
4728.00,1.1385
4727.00,1.1385
4726.00,1.1384
4725.00,1.1384
4724.00,1.1384
4723.00,1.1384
4722.00,1.1383
4721.00,1.1383
4720.00,1.1382
4719.00,1.1382
4718.00,1.1381
4717.00,1.1381
4716.00,1.1381
4715.00,1.1381
4714.00,1.1381
4713.00,1.1381
4712.00,1.1381
4711.00,1.1380
4710.00,1.1380
4709.00,1.1380
4708.00,1.1381
4707.00,1.1381
4706.00,1.1381
4705.00,1.1382
4704.00,1.1382
4703.00,1.1383
4702.00,1.1384
4701.00,1.1384
4700.00,1.1385
4699.00,1.1385
4698.00,1.1384
4697.00,1.1384
4696.00,1.1383
4695.00,1.1382
4694.00,1.1381
4693.00,1.1380
4692.00,1.1379
4691.00,1.1379
4690.00,1.1378
4689.00,1.1378
4688.00,1.1377
4687.00,1.1377
4686.00,1.1376
4685.00,1.1375
4684.00,1.1375
4683.00,1.1375
4682.00,1.1374
4681.00,1.1374
4680.00,1.1374
4679.00,1.1374
4678.00,1.1374
4677.00,1.1374
4676.00,1.1373
4675.00,1.1373
4674.00,1.1373
4673.00,1.1372
4672.00,1.1372
4671.00,1.1372
4670.00,1.1372
4669.00,1.1373
4668.00,1.1373
4667.00,1.1373
4666.00,1.1373
4665.00,1.1373
4664.00,1.1373
4663.00,1.1373
4662.00,1.1373
4661.00,1.1373
4660.00,1.1373
4659.00,1.1373
4658.00,1.1373
4657.00,1.1373
4656.00,1.1373
4655.00,1.1374
4654.00,1.1374
4653.00,1.1373
4652.00,1.1373
4651.00,1.1373
4650.00,1.1372
4649.00,1.1372
4648.00,1.1372
4647.00,1.1372
4646.00,1.1372
4645.00,1.1372
4644.00,1.1372
4643.00,1.1372
4642.00,1.1372
4641.00,1.1372
4640.00,1.1371
4639.00,1.1371
4638.00,1.1371
4637.00,1.1371
4636.00,1.1372
4635.00,1.1372
4634.00,1.1373
4633.00,1.1373
4632.00,1.1372
4631.00,1.1372
4630.00,1.1372
4629.00,1.1372
4628.00,1.1372
4627.00,1.1372
4626.00,1.1372
4625.00,1.1372
4624.00,1.1372
4623.00,1.1372
4622.00,1.1372
4621.00,1.1372
4620.00,1.1372
4619.00,1.1371
4618.00,1.1371
4617.00,1.1371
4616.00,1.1371
4615.00,1.1371
4614.00,1.1371
4613.00,1.1371
4612.00,1.1371
4611.00,1.1371
4610.00,1.1371
4609.00,1.1371
4608.00,1.1371
4607.00,1.1372
4606.00,1.1372
4605.00,1.1372
4604.00,1.1372
4603.00,1.1372
4602.00,1.1372
4601.00,1.1372
4600.00,1.1371
4599.00,1.1371
4598.00,1.1371
4597.00,1.1371
4596.00,1.1371
4595.00,1.1370
4594.00,1.1370
4593.00,1.1370
4592.00,1.1370
4591.00,1.1370
4590.00,1.1370
4589.00,1.1370
4588.00,1.1370
4587.00,1.1370
4586.00,1.1370
4585.00,1.1369
4584.00,1.1369
4583.00,1.1369
4582.00,1.1369
4581.00,1.1369
4580.00,1.1370
4579.00,1.1370
4578.00,1.1371
4577.00,1.1371
4576.00,1.1370
4575.00,1.1370
4574.00,1.1370
4573.00,1.1369
4572.00,1.1370
4571.00,1.1370
4570.00,1.1370
4569.00,1.1370
4568.00,1.1369
4567.00,1.1369
4566.00,1.1369
4565.00,1.1369
4564.00,1.1369
4563.00,1.1369
4562.00,1.1369
4561.00,1.1369
4560.00,1.1368
4559.00,1.1368
4558.00,1.1368
4557.00,1.1368
4556.00,1.1368
4555.00,1.1368
4554.00,1.1369
4553.00,1.1368
4552.00,1.1368
4551.00,1.1368
4550.00,1.1368
4549.00,1.1368
4548.00,1.1368
4547.00,1.1368
4546.00,1.1368
4545.00,1.1367
4544.00,1.1368
4543.00,1.1368
4542.00,1.1368
4541.00,1.1368
4540.00,1.1367
4539.00,1.1367
4538.00,1.1367
4537.00,1.1366
4536.00,1.1366
4535.00,1.1366
4534.00,1.1366
4533.00,1.1365
4532.00,1.1365
4531.00,1.1365
4530.00,1.1365
4529.00,1.1366
4528.00,1.1366
4527.00,1.1366
4526.00,1.1366
4525.00,1.1366
4524.00,1.1366
4523.00,1.1366
4522.00,1.1366
4521.00,1.1366
4520.00,1.1365
4519.00,1.1365
4518.00,1.1365
4517.00,1.1365
4516.00,1.1364
4515.00,1.1364
4514.00,1.1364
4513.00,1.1364
4512.00,1.1363
4511.00,1.1363
4510.00,1.1363
4509.00,1.1363
4508.00,1.1363
4507.00,1.1363
4506.00,1.1363
4505.00,1.1363
4504.00,1.1363
4503.00,1.1363
4502.00,1.1363
4501.00,1.1364
4500.00,1.1364
4499.00,1.1364
4498.00,1.1364
4497.00,1.1364
4496.00,1.1363
4495.00,1.1363
4494.00,1.1363
4493.00,1.1363
4492.00,1.1363
4491.00,1.1363
4490.00,1.1363
4489.00,1.1363
4488.00,1.1363
4487.00,1.1363
4486.00,1.1363
4485.00,1.1362
4484.00,1.1363
4483.00,1.1363
4482.00,1.1363
4481.00,1.1364
4480.00,1.1364
4479.00,1.1365
4478.00,1.1365
4477.00,1.1365
4476.00,1.1365
4475.00,1.1364
4474.00,1.1364
4473.00,1.1364
4472.00,1.1364
4471.00,1.1364
4470.00,1.1364
4469.00,1.1364
4468.00,1.1364
4467.00,1.1364
4466.00,1.1364
4465.00,1.1363
4464.00,1.1363
4463.00,1.1363
4462.00,1.1362
4461.00,1.1362
4460.00,1.1361
4459.00,1.1361
4458.00,1.1362
4457.00,1.1362
4456.00,1.1362
4455.00,1.1362
4454.00,1.1362
4453.00,1.1361
4452.00,1.1361
4451.00,1.1361
4450.00,1.1361
4449.00,1.1361
4448.00,1.1361
4447.00,1.1361
4446.00,1.1361
4445.00,1.1361
4444.00,1.1361
4443.00,1.1362
4442.00,1.1362
4441.00,1.1362
4440.00,1.1362
4439.00,1.1362
4438.00,1.1362
4437.00,1.1362
4436.00,1.1361
4435.00,1.1361
4434.00,1.1361
4433.00,1.1360
4432.00,1.1360
4431.00,1.1360
4430.00,1.1361
4429.00,1.1361
4428.00,1.1361
4427.00,1.1360
4426.00,1.1360
4425.00,1.1360
4424.00,1.1360
4423.00,1.1360
4422.00,1.1360
4421.00,1.1360
4420.00,1.1360
4419.00,1.1360
4418.00,1.1361
4417.00,1.1361
4416.00,1.1361
4415.00,1.1360
4414.00,1.1360
4413.00,1.1360
4412.00,1.1360
4411.00,1.1361
4410.00,1.1361
4409.00,1.1361
4408.00,1.1361
4407.00,1.1361
4406.00,1.1360
4405.00,1.1360
4404.00,1.1359
4403.00,1.1359
4402.00,1.1360
4401.00,1.1360
4400.00,1.1360
4399.00,1.1360
4398.00,1.1360
4397.00,1.1360
4396.00,1.1361
4395.00,1.1361
4394.00,1.1361
4393.00,1.1361
4392.00,1.1361
4391.00,1.1361
4390.00,1.1361
4389.00,1.1361
4388.00,1.1361
4387.00,1.1361
4386.00,1.1361
4385.00,1.1361
4384.00,1.1361
4383.00,1.1362
4382.00,1.1362
4381.00,1.1362
4380.00,1.1361
4379.00,1.1361
4378.00,1.1362
4377.00,1.1362
4376.00,1.1362
4375.00,1.1362
4374.00,1.1362
4373.00,1.1362
4372.00,1.1362
4371.00,1.1362
4370.00,1.1363
4369.00,1.1364
4368.00,1.1364
4367.00,1.1365
4366.00,1.1365
4365.00,1.1365
4364.00,1.1365
4363.00,1.1365
4362.00,1.1365
4361.00,1.1364
4360.00,1.1364
4359.00,1.1364
4358.00,1.1364
4357.00,1.1364
4356.00,1.1364
4355.00,1.1364
4354.00,1.1365
4353.00,1.1365
4352.00,1.1365
4351.00,1.1365
4350.00,1.1365
4349.00,1.1365
4348.00,1.1365
4347.00,1.1366
4346.00,1.1366
4345.00,1.1366
4344.00,1.1366
4343.00,1.1366
4342.00,1.1366
4341.00,1.1365
4340.00,1.1365
4339.00,1.1365
4338.00,1.1365
4337.00,1.1365
4336.00,1.1366
4335.00,1.1367
4334.00,1.1367
4333.00,1.1367
4332.00,1.1367
4331.00,1.1367
4330.00,1.1367
4329.00,1.1367
4328.00,1.1367
4327.00,1.1367
4326.00,1.1367
4325.00,1.1366
4324.00,1.1366
4323.00,1.1367
4322.00,1.1367
4321.00,1.1367
4320.00,1.1367
4319.00,1.1367
4318.00,1.1368
4317.00,1.1368
4316.00,1.1368
4315.00,1.1368
4314.00,1.1368
4313.00,1.1368
4312.00,1.1368
4311.00,1.1368
4310.00,1.1368
4309.00,1.1368
4308.00,1.1369
4307.00,1.1369
4306.00,1.1369
4305.00,1.1368
4304.00,1.1368
4303.00,1.1369
4302.00,1.1369
4301.00,1.1369
4300.00,1.1370
4299.00,1.1370
4298.00,1.1370
4297.00,1.1370
4296.00,1.1370
4295.00,1.1371
4294.00,1.1371
4293.00,1.1371
4292.00,1.1370
4291.00,1.1370
4290.00,1.1370
4289.00,1.1370
4288.00,1.1371
4287.00,1.1371
4286.00,1.1372
4285.00,1.1373
4284.00,1.1373
4283.00,1.1373
4282.00,1.1373
4281.00,1.1373
4280.00,1.1373
4279.00,1.1374
4278.00,1.1374
4277.00,1.1374
4276.00,1.1374
4275.00,1.1374
4274.00,1.1374
4273.00,1.1374
4272.00,1.1373
4271.00,1.1373
4270.00,1.1373
4269.00,1.1373
4268.00,1.1373
4267.00,1.1373
4266.00,1.1373
4265.00,1.1373
4264.00,1.1373
4263.00,1.1373
4262.00,1.1374
4261.00,1.1374
4260.00,1.1374
4259.00,1.1375
4258.00,1.1375
4257.00,1.1375
4256.00,1.1374
4255.00,1.1374
4254.00,1.1374
4253.00,1.1374
4252.00,1.1375
4251.00,1.1375
4250.00,1.1375
4249.00,1.1375
4248.00,1.1375
4247.00,1.1375
4246.00,1.1375
4245.00,1.1375
4244.00,1.1375
4243.00,1.1375
4242.00,1.1375
4241.00,1.1375
4240.00,1.1375
4239.00,1.1375
4238.00,1.1375
4237.00,1.1375
4236.00,1.1375
4235.00,1.1375
4234.00,1.1375
4233.00,1.1375
4232.00,1.1375
4231.00,1.1375
4230.00,1.1375
4229.00,1.1375
4228.00,1.1375
4227.00,1.1375
4226.00,1.1375
4225.00,1.1375
4224.00,1.1375
4223.00,1.1375
4222.00,1.1375
4221.00,1.1374
4220.00,1.1374
4219.00,1.1374
4218.00,1.1374
4217.00,1.1374
4216.00,1.1374
4215.00,1.1374
4214.00,1.1374
4213.00,1.1374
4212.00,1.1374
4211.00,1.1374
4210.00,1.1374
4209.00,1.1374
4208.00,1.1374
4207.00,1.1374
4206.00,1.1374
4205.00,1.1374
4204.00,1.1373
4203.00,1.1374
4202.00,1.1374
4201.00,1.1374
4200.00,1.1374
4199.00,1.1374
4198.00,1.1375
4197.00,1.1375
4196.00,1.1375
4195.00,1.1375
4194.00,1.1374
4193.00,1.1374
4192.00,1.1374
4191.00,1.1374
4190.00,1.1375
4189.00,1.1375
4188.00,1.1376
4187.00,1.1376
4186.00,1.1376
4185.00,1.1375
4184.00,1.1375
4183.00,1.1375
4182.00,1.1375
4181.00,1.1375
4180.00,1.1375
4179.00,1.1375
4178.00,1.1375
4177.00,1.1375
4176.00,1.1375
4175.00,1.1374
4174.00,1.1374
4173.00,1.1374
4172.00,1.1374
4171.00,1.1375
4170.00,1.1375
4169.00,1.1374
4168.00,1.1374
4167.00,1.1374
4166.00,1.1374
4165.00,1.1374
4164.00,1.1374
4163.00,1.1374
4162.00,1.1374
4161.00,1.1374
4160.00,1.1374
4159.00,1.1374
4158.00,1.1374
4157.00,1.1374
4156.00,1.1375
4155.00,1.1375
4154.00,1.1375
4153.00,1.1374
4152.00,1.1373
4151.00,1.1372
4150.00,1.1372
4149.00,1.1371
4148.00,1.1371
4147.00,1.1371
4146.00,1.1371
4145.00,1.1372
4144.00,1.1372
4143.00,1.1372
4142.00,1.1372
4141.00,1.1371
4140.00,1.1371
4139.00,1.1371
4138.00,1.1371
4137.00,1.1371
4136.00,1.1371
4135.00,1.1370
4134.00,1.1370
4133.00,1.1370
4132.00,1.1369
4131.00,1.1369
4130.00,1.1369
4129.00,1.1369
4128.00,1.1369
4127.00,1.1370
4126.00,1.1370
4125.00,1.1370
4124.00,1.1370
4123.00,1.1370
4122.00,1.1370
4121.00,1.1370
4120.00,1.1370
4119.00,1.1370
4118.00,1.1370
4117.00,1.1369
4116.00,1.1369
4115.00,1.1369
4114.00,1.1369
4113.00,1.1369
4112.00,1.1369
4111.00,1.1369
4110.00,1.1369
4109.00,1.1369
4108.00,1.1369
4107.00,1.1368
4106.00,1.1368
4105.00,1.1368
4104.00,1.1368
4103.00,1.1368
4102.00,1.1367
4101.00,1.1367
4100.00,1.1367
4099.00,1.1367
4098.00,1.1367
4097.00,1.1367
4096.00,1.1368
4095.00,1.1368
4094.00,1.1368
4093.00,1.1368
4092.00,1.1368
4091.00,1.1368
4090.00,1.1368
4089.00,1.1368
4088.00,1.1368
4087.00,1.1368
4086.00,1.1368
4085.00,1.1368
4084.00,1.1368
4083.00,1.1368
4082.00,1.1368
4081.00,1.1367
4080.00,1.1368
4079.00,1.1368
4078.00,1.1368
4077.00,1.1368
4076.00,1.1368
4075.00,1.1368
4074.00,1.1367
4073.00,1.1367
4072.00,1.1367
4071.00,1.1367
4070.00,1.1367
4069.00,1.1367
4068.00,1.1366
4067.00,1.1366
4066.00,1.1366
4065.00,1.1365
4064.00,1.1365
4063.00,1.1365
4062.00,1.1365
4061.00,1.1365
4060.00,1.1365
4059.00,1.1365
4058.00,1.1364
4057.00,1.1364
4056.00,1.1364
4055.00,1.1364
4054.00,1.1364
4053.00,1.1364
4052.00,1.1364
4051.00,1.1364
4050.00,1.1364
4049.00,1.1364
4048.00,1.1364
4047.00,1.1364
4046.00,1.1363
4045.00,1.1363
4044.00,1.1363
4043.00,1.1363
4042.00,1.1363
4041.00,1.1362
4040.00,1.1362
4039.00,1.1362
4038.00,1.1361
4037.00,1.1361
4036.00,1.1361
4035.00,1.1361
4034.00,1.1361
4033.00,1.1361
4032.00,1.1361
4031.00,1.1361
4030.00,1.1361
4029.00,1.1361
4028.00,1.1360
4027.00,1.1360
4026.00,1.1360
4025.00,1.1360
4024.00,1.1360
4023.00,1.1360
4022.00,1.1359
4021.00,1.1359
4020.00,1.1359
4019.00,1.1359
4018.00,1.1359
4017.00,1.1359
4016.00,1.1359
4015.00,1.1358
4014.00,1.1358
4013.00,1.1358
4012.00,1.1358
4011.00,1.1357
4010.00,1.1357
4009.00,1.1357
4008.00,1.1356
4007.00,1.1356
4006.00,1.1356
4005.00,1.1355
4004.00,1.1355
4003.00,1.1355
4002.00,1.1355
4001.00,1.1355
4000.00,1.1355
3999.00,1.1355
3998.00,1.1355
3997.00,1.1355
3996.00,1.1355
3995.00,1.1355
3994.00,1.1355
3993.00,1.1355
3992.00,1.1354
3991.00,1.1354
3990.00,1.1353
3989.00,1.1353
3988.00,1.1353
3987.00,1.1352
3986.00,1.1352
3985.00,1.1352
3984.00,1.1351
3983.00,1.1351
3982.00,1.1351
3981.00,1.1351
3980.00,1.1350
3979.00,1.1350
3978.00,1.1350
3977.00,1.1350
3976.00,1.1349
3975.00,1.1349
3974.00,1.1349
3973.00,1.1349
3972.00,1.1348
3971.00,1.1348
3970.00,1.1347
3969.00,1.1346
3968.00,1.1346
3967.00,1.1346
3966.00,1.1345
3965.00,1.1345
3964.00,1.1344
3963.00,1.1344
3962.00,1.1343
3961.00,1.1343
3960.00,1.1342
3959.00,1.1342
3958.00,1.1341
3957.00,1.1341
3956.00,1.1341
3955.00,1.1341
3954.00,1.1341
3953.00,1.1341
3952.00,1.1341
3951.00,1.1340
3950.00,1.1339
3949.00,1.1338
3948.00,1.1337
3947.00,1.1336
3946.00,1.1336
3945.00,1.1336
3944.00,1.1336
3943.00,1.1335
3942.00,1.1334
3941.00,1.1333
3940.00,1.1332
3939.00,1.1331
3938.00,1.1330
3937.00,1.1329
3936.00,1.1329
3935.00,1.1328
3934.00,1.1327
3933.00,1.1326
3932.00,1.1326
3931.00,1.1326
3930.00,1.1326
3929.00,1.1326
3928.00,1.1326
3927.00,1.1325
3926.00,1.1325
3925.00,1.1324
3924.00,1.1324
3923.00,1.1323
3922.00,1.1322
3921.00,1.1320
3920.00,1.1318
3919.00,1.1317
3918.00,1.1316
3917.00,1.1315
3916.00,1.1315
3915.00,1.1314
3914.00,1.1314
3913.00,1.1313
3912.00,1.1313
3911.00,1.1312
3910.00,1.1312
3909.00,1.1312
3908.00,1.1313
3907.00,1.1313
3906.00,1.1313
3905.00,1.1311
3904.00,1.1310
3903.00,1.1308
3902.00,1.1306
3901.00,1.1304
3900.00,1.1303
3899.00,1.1303
3898.00,1.1303
3897.00,1.1303
3896.00,1.1303
3895.00,1.1303
3894.00,1.1304
3893.00,1.1303
3892.00,1.1302
3891.00,1.1300
3890.00,1.1300
3889.00,1.1298
3888.00,1.1296
3887.00,1.1294
3886.00,1.1293
3885.00,1.1294
3884.00,1.1296
3883.00,1.1296
3882.00,1.1295
3881.00,1.1293
3880.00,1.1292
3879.00,1.1293
3878.00,1.1293
3877.00,1.1292
3876.00,1.1291
3875.00,1.1290
3874.00,1.1290
3873.00,1.1291
3872.00,1.1289
3871.00,1.1286
3870.00,1.1284
3869.00,1.1285
3868.00,1.1286
3867.00,1.1286
3866.00,1.1284
3865.00,1.1284
3864.00,1.1284
3863.00,1.1283
3862.00,1.1281
3861.00,1.1279
3860.00,1.1278
3859.00,1.1277
3858.00,1.1276
3857.00,1.1276
3856.00,1.1277
3855.00,1.1276
3854.00,1.1273
3853.00,1.1271
3852.00,1.1270
3851.00,1.1268
3850.00,1.1267
3849.00,1.1267
3848.00,1.1268
3847.00,1.1268
3846.00,1.1269
3845.00,1.1269
3844.00,1.1269
3843.00,1.1269
3842.00,1.1269
3841.00,1.1267
3840.00,1.1266
3839.00,1.1266
3838.00,1.1267
3837.00,1.1266
3836.00,1.1265
3835.00,1.1264
3834.00,1.1263
3833.00,1.1262
3832.00,1.1260
3831.00,1.1260
3830.00,1.1260
3829.00,1.1260
3828.00,1.1259
3827.00,1.1258
3826.00,1.1258
3825.00,1.1259
3824.00,1.1259
3823.00,1.1258
3822.00,1.1255
3821.00,1.1254
3820.00,1.1254
3819.00,1.1254
3818.00,1.1251
3817.00,1.1249
3816.00,1.1248
3815.00,1.1250
3814.00,1.1251
3813.00,1.1250
3812.00,1.1249
3811.00,1.1249
3810.00,1.1249
3809.00,1.1249
3808.00,1.1248
3807.00,1.1247
3806.00,1.1247
3805.00,1.1246
3804.00,1.1245
3803.00,1.1243
3802.00,1.1243
3801.00,1.1246
3800.00,1.1248
3799.00,1.1247
3798.00,1.1245
3797.00,1.1243
3796.00,1.1243
3795.00,1.1243
3794.00,1.1243
3793.00,1.1242
3792.00,1.1242
3791.00,1.1243
3790.00,1.1243
3789.00,1.1243
3788.00,1.1243
3787.00,1.1243
3786.00,1.1242
3785.00,1.1241
3784.00,1.1241
3783.00,1.1241
3782.00,1.1240
3781.00,1.1239
3780.00,1.1237
3779.00,1.1237
3778.00,1.1237
3777.00,1.1236
3776.00,1.1236
3775.00,1.1235
3774.00,1.1235
3773.00,1.1236
3772.00,1.1235
3771.00,1.1233
3770.00,1.1233
3769.00,1.1233
3768.00,1.1233
3767.00,1.1231
3766.00,1.1230
3765.00,1.1229
3764.00,1.1229
3763.00,1.1229
3762.00,1.1228
3761.00,1.1228
3760.00,1.1228
3759.00,1.1228
3758.00,1.1227
3757.00,1.1225
3756.00,1.1223
3755.00,1.1221
3754.00,1.1219
3753.00,1.1218
3752.00,1.1217
3751.00,1.1215
3750.00,1.1213
3749.00,1.1211
3748.00,1.1211
3747.00,1.1210
3746.00,1.1209
3745.00,1.1208
3744.00,1.1210
3743.00,1.1212
3742.00,1.1212
3741.00,1.1210
3740.00,1.1209
3739.00,1.1210
3738.00,1.1210
3737.00,1.1210
3736.00,1.1211
3735.00,1.1213
3734.00,1.1213
3733.00,1.1211
3732.00,1.1210
3731.00,1.1210
3730.00,1.1211
3729.00,1.1211
3728.00,1.1211
3727.00,1.1212
3726.00,1.1214
3725.00,1.1215
3724.00,1.1215
3723.00,1.1214
3722.00,1.1214
3721.00,1.1214
3720.00,1.1214
3719.00,1.1214
3718.00,1.1213
3717.00,1.1213
3716.00,1.1213
3715.00,1.1212
3714.00,1.1211
3713.00,1.1211
3712.00,1.1211
3711.00,1.1211
3710.00,1.1210
3709.00,1.1211
3708.00,1.1211
3707.00,1.1212
3706.00,1.1214
3705.00,1.1215
3704.00,1.1217
3703.00,1.1217
3702.00,1.1218
3701.00,1.1219
3700.00,1.1220
3699.00,1.1220
3698.00,1.1221
3697.00,1.1221
3696.00,1.1223
3695.00,1.1224
3694.00,1.1225
3693.00,1.1226
3692.00,1.1226
3691.00,1.1226
3690.00,1.1225
3689.00,1.1224
3688.00,1.1225
3687.00,1.1227
3686.00,1.1229
3685.00,1.1231
3684.00,1.1233
3683.00,1.1236
3682.00,1.1238
3681.00,1.1239
3680.00,1.1241
3679.00,1.1243
3678.00,1.1245
3677.00,1.1245
3676.00,1.1245
3675.00,1.1248
3674.00,1.1252
3673.00,1.1255
3672.00,1.1256
3671.00,1.1257
3670.00,1.1260
3669.00,1.1264
3668.00,1.1267
3667.00,1.1270
3666.00,1.1273
3665.00,1.1276
3664.00,1.1280
3663.00,1.1283
3662.00,1.1286
3661.00,1.1288
3660.00,1.1291
3659.00,1.1293
3658.00,1.1295
3657.00,1.1296
3656.00,1.1299
3655.00,1.1302
3654.00,1.1305
3653.00,1.1306
3652.00,1.1306
3651.00,1.1308
3650.00,1.1311
3649.00,1.1314
3648.00,1.1317
3647.00,1.1320
3646.00,1.1324
3645.00,1.1327
3644.00,1.1331
3643.00,1.1334
3642.00,1.1337
3641.00,1.1340
3640.00,1.1342
3639.00,1.1344
3638.00,1.1345
3637.00,1.1347
3636.00,1.1349
3635.00,1.1349
3634.00,1.1350
3633.00,1.1351
3632.00,1.1352
3631.00,1.1352
3630.00,1.1351
3629.00,1.1352
3628.00,1.1354
3627.00,1.1357
3626.00,1.1359
3625.00,1.1361
3624.00,1.1364
3623.00,1.1367
3622.00,1.1370
3621.00,1.1372
3620.00,1.1374
3619.00,1.1375
3618.00,1.1377
3617.00,1.1378
3616.00,1.1379
3615.00,1.1379
3614.00,1.1379
3613.00,1.1379
3612.00,1.1379
3611.00,1.1379
3610.00,1.1379
3609.00,1.1379
3608.00,1.1381
3607.00,1.1383
3606.00,1.1385
3605.00,1.1387
3604.00,1.1389
3603.00,1.1390
3602.00,1.1391
3601.00,1.1391
3600.00,1.1393
3599.00,1.1394
3598.00,1.1395
3597.00,1.1396
3596.00,1.1396
3595.00,1.1395
3594.00,1.1395
3593.00,1.1395
3592.00,1.1395
3591.00,1.1395
3590.00,1.1395
3589.00,1.1395
3588.00,1.1395
3587.00,1.1395
3586.00,1.1395
3585.00,1.1395
3584.00,1.1396
3583.00,1.1397
3582.00,1.1398
3581.00,1.1399
3580.00,1.1400
3579.00,1.1401
3578.00,1.1402
3577.00,1.1402
3576.00,1.1402
3575.00,1.1402
3574.00,1.1402
3573.00,1.1402
3572.00,1.1402
3571.00,1.1402
3570.00,1.1402
3569.00,1.1402
3568.00,1.1402
3567.00,1.1402
3566.00,1.1403
3565.00,1.1404
3564.00,1.1404
3563.00,1.1404
3562.00,1.1404
3561.00,1.1405
3560.00,1.1405
3559.00,1.1406
3558.00,1.1406
3557.00,1.1406
3556.00,1.1407
3555.00,1.1408
3554.00,1.1408
3553.00,1.1408
3552.00,1.1408
3551.00,1.1409
3550.00,1.1409
3549.00,1.1409
3548.00,1.1408
3547.00,1.1408
3546.00,1.1408
3545.00,1.1408
3544.00,1.1409
3543.00,1.1410
3542.00,1.1412
3541.00,1.1413
3540.00,1.1414
3539.00,1.1415
3538.00,1.1416
3537.00,1.1416
3536.00,1.1416
3535.00,1.1417
3534.00,1.1418
3533.00,1.1419
3532.00,1.1420
3531.00,1.1422
3530.00,1.1422
3529.00,1.1423
3528.00,1.1424
3527.00,1.1424
3526.00,1.1425
3525.00,1.1425
3524.00,1.1426
3523.00,1.1427
3522.00,1.1428
3521.00,1.1430
3520.00,1.1431
3519.00,1.1432
3518.00,1.1434
3517.00,1.1435
3516.00,1.1436
3515.00,1.1437
3514.00,1.1438
3513.00,1.1439
3512.00,1.1441
3511.00,1.1443
3510.00,1.1444
3509.00,1.1446
3508.00,1.1448
3507.00,1.1449
3506.00,1.1451
3505.00,1.1452
3504.00,1.1453
3503.00,1.1454
3502.00,1.1456
3501.00,1.1457
3500.00,1.1459
3499.00,1.1461
3498.00,1.1463
3497.00,1.1464
3496.00,1.1466
3495.00,1.1468
3494.00,1.1471
3493.00,1.1473
3492.00,1.1475
3491.00,1.1478
3490.00,1.1480
3489.00,1.1482
3488.00,1.1484
3487.00,1.1486
3486.00,1.1488
3485.00,1.1490
3484.00,1.1493
3483.00,1.1495
3482.00,1.1496
3481.00,1.1498
3480.00,1.1500
3479.00,1.1502
3478.00,1.1505
3477.00,1.1508
3476.00,1.1510
3475.00,1.1513
3474.00,1.1516
3473.00,1.1518
3472.00,1.1520
3471.00,1.1522
3470.00,1.1523
3469.00,1.1525
3468.00,1.1527
3467.00,1.1531
3466.00,1.1535
3465.00,1.1538
3464.00,1.1542
3463.00,1.1545
3462.00,1.1548
3461.00,1.1551
3460.00,1.1554
3459.00,1.1557
3458.00,1.1560
3457.00,1.1564
3456.00,1.1567
3455.00,1.1570
3454.00,1.1573
3453.00,1.1576
3452.00,1.1580
3451.00,1.1583
3450.00,1.1587
3449.00,1.1590
3448.00,1.1593
3447.00,1.1596
3446.00,1.1600
3445.00,1.1603
3444.00,1.1607
3443.00,1.1610
3442.00,1.1613
3441.00,1.1616
3440.00,1.1620
3439.00,1.1623
3438.00,1.1626
3437.00,1.1629
3436.00,1.1632
3435.00,1.1635
3434.00,1.1639
3433.00,1.1643
3432.00,1.1647
3431.00,1.1651
3430.00,1.1654
3429.00,1.1658
3428.00,1.1661
3427.00,1.1665
3426.00,1.1669
3425.00,1.1673
3424.00,1.1676
3423.00,1.1679
3422.00,1.1682
3421.00,1.1685
3420.00,1.1687
3419.00,1.1690
3418.00,1.1692
3417.00,1.1695
3416.00,1.1697
3415.00,1.1699
3414.00,1.1702
3413.00,1.1704
3412.00,1.1706
3411.00,1.1708
3410.00,1.1710
3409.00,1.1713
3408.00,1.1715
3407.00,1.1717
3406.00,1.1720
3405.00,1.1722
3404.00,1.1723
3403.00,1.1724
3402.00,1.1724
3401.00,1.1725
3400.00,1.1726
3399.00,1.1729
3398.00,1.1732
3397.00,1.1735
3396.00,1.1737
3395.00,1.1739
3394.00,1.1740
3393.00,1.1740
3392.00,1.1741
3391.00,1.1743
3390.00,1.1745
3389.00,1.1748
3388.00,1.1750
3387.00,1.1752
3386.00,1.1754
3385.00,1.1755
3384.00,1.1756
3383.00,1.1758
3382.00,1.1759
3381.00,1.1760
3380.00,1.1761
3379.00,1.1762
3378.00,1.1763
3377.00,1.1764
3376.00,1.1765
3375.00,1.1767
3374.00,1.1768
3373.00,1.1768
3372.00,1.1768
3371.00,1.1768
3370.00,1.1767
3369.00,1.1767
3368.00,1.1768
3367.00,1.1770
3366.00,1.1772
3365.00,1.1773
3364.00,1.1775
3363.00,1.1776
3362.00,1.1776
3361.00,1.1777
3360.00,1.1778
3359.00,1.1779
3358.00,1.1780
3357.00,1.1781
3356.00,1.1782
3355.00,1.1782
3354.00,1.1782
3353.00,1.1782
3352.00,1.1782
3351.00,1.1781
3350.00,1.1782
3349.00,1.1783
3348.00,1.1784
3347.00,1.1785
3346.00,1.1786
3345.00,1.1787
3344.00,1.1787
3343.00,1.1787
3342.00,1.1787
3341.00,1.1787
3340.00,1.1787
3339.00,1.1787
3338.00,1.1788
3337.00,1.1789
3336.00,1.1790
3335.00,1.1791
3334.00,1.1791
3333.00,1.1792
3332.00,1.1793
3331.00,1.1793
3330.00,1.1794
3329.00,1.1794
3328.00,1.1794
3327.00,1.1795
3326.00,1.1795
3325.00,1.1796
3324.00,1.1797
3323.00,1.1798
3322.00,1.1799
3321.00,1.1800
3320.00,1.1801
3319.00,1.1802
3318.00,1.1803
3317.00,1.1804
3316.00,1.1804
3315.00,1.1805
3314.00,1.1805
3313.00,1.1805
3312.00,1.1806
3311.00,1.1806
3310.00,1.1806
3309.00,1.1806
3308.00,1.1805
3307.00,1.1805
3306.00,1.1806
3305.00,1.1807
3304.00,1.1809
3303.00,1.1811
3302.00,1.1814
3301.00,1.1815
3300.00,1.1816
3299.00,1.1817
3298.00,1.1817
3297.00,1.1818
3296.00,1.1818
3295.00,1.1819
3294.00,1.1820
3293.00,1.1820
3292.00,1.1821
3291.00,1.1822
3290.00,1.1824
3289.00,1.1825
3288.00,1.1827
3287.00,1.1828
3286.00,1.1829
3285.00,1.1830
3284.00,1.1831
3283.00,1.1831
3282.00,1.1832
3281.00,1.1833
3280.00,1.1834
3279.00,1.1835
3278.00,1.1836
3277.00,1.1837
3276.00,1.1838
3275.00,1.1838
3274.00,1.1838
3273.00,1.1839
3272.00,1.1839
3271.00,1.1839
3270.00,1.1840
3269.00,1.1842
3268.00,1.1844
3267.00,1.1846
3266.00,1.1848
3265.00,1.1849
3264.00,1.1851
3263.00,1.1852
3262.00,1.1853
3261.00,1.1854
3260.00,1.1855
3259.00,1.1855
3258.00,1.1856
3257.00,1.1857
3256.00,1.1858
3255.00,1.1859
3254.00,1.1861
3253.00,1.1863
3252.00,1.1864
3251.00,1.1865
3250.00,1.1866
3249.00,1.1867
3248.00,1.1867
3247.00,1.1868
3246.00,1.1870
3245.00,1.1871
3244.00,1.1873
3243.00,1.1874
3242.00,1.1876
3241.00,1.1877
3240.00,1.1879
3239.00,1.1880
3238.00,1.1881
3237.00,1.1882
3236.00,1.1882
3235.00,1.1882
3234.00,1.1883
3233.00,1.1884
3232.00,1.1885
3231.00,1.1887
3230.00,1.1889
3229.00,1.1891
3228.00,1.1892
3227.00,1.1893
3226.00,1.1893
3225.00,1.1894
3224.00,1.1895
3223.00,1.1896
3222.00,1.1896
3221.00,1.1896
3220.00,1.1897
3219.00,1.1897
3218.00,1.1897
3217.00,1.1898
3216.00,1.1898
3215.00,1.1898
3214.00,1.1898
3213.00,1.1898
3212.00,1.1898
3211.00,1.1898
3210.00,1.1898
3209.00,1.1899
3208.00,1.1899
3207.00,1.1899
3206.00,1.1898
3205.00,1.1898
3204.00,1.1898
3203.00,1.1898
3202.00,1.1898
3201.00,1.1898
3200.00,1.1898
3199.00,1.1897
3198.00,1.1897
3197.00,1.1897
3196.00,1.1897
3195.00,1.1897
3194.00,1.1897
3193.00,1.1897
3192.00,1.1898
3191.00,1.1898
3190.00,1.1898
3189.00,1.1897
3188.00,1.1897
3187.00,1.1897
3186.00,1.1897
3185.00,1.1897
3184.00,1.1897
3183.00,1.1897
3182.00,1.1897
3181.00,1.1897
3180.00,1.1897
3179.00,1.1897
3178.00,1.1897
3177.00,1.1897
3176.00,1.1897
3175.00,1.1896
3174.00,1.1896
3173.00,1.1896
3172.00,1.1896
3171.00,1.1896
3170.00,1.1896
3169.00,1.1896
3168.00,1.1896
3167.00,1.1896
3166.00,1.1897
3165.00,1.1898
3164.00,1.1898
3163.00,1.1899
3162.00,1.1898
3161.00,1.1898
3160.00,1.1899
3159.00,1.1899
3158.00,1.1899
3157.00,1.1899
3156.00,1.1899
3155.00,1.1899
3154.00,1.1898
3153.00,1.1898
3152.00,1.1898
3151.00,1.1899
3150.00,1.1900
3149.00,1.1902
3148.00,1.1903
3147.00,1.1903
3146.00,1.1903
3145.00,1.1904
3144.00,1.1904
3143.00,1.1904
3142.00,1.1904
3141.00,1.1904
3140.00,1.1904
3139.00,1.1904
3138.00,1.1904
3137.00,1.1905
3136.00,1.1907
3135.00,1.1907
3134.00,1.1908
3133.00,1.1909
3132.00,1.1909
3131.00,1.1910
3130.00,1.1910
3129.00,1.1911
3128.00,1.1911
3127.00,1.1911
3126.00,1.1912
3125.00,1.1912
3124.00,1.1912
3123.00,1.1911
3122.00,1.1911
3121.00,1.1910
3120.00,1.1910
3119.00,1.1909
3118.00,1.1910
3117.00,1.1910
3116.00,1.1910
3115.00,1.1910
3114.00,1.1911
3113.00,1.1913
3112.00,1.1914
3111.00,1.1914
3110.00,1.1914
3109.00,1.1914
3108.00,1.1913
3107.00,1.1914
3106.00,1.1914
3105.00,1.1914
3104.00,1.1914
3103.00,1.1914
3102.00,1.1913
3101.00,1.1913
3100.00,1.1913
3099.00,1.1913
3098.00,1.1913
3097.00,1.1913
3096.00,1.1913
3095.00,1.1912
3094.00,1.1912
3093.00,1.1911
3092.00,1.1911
3091.00,1.1910
3090.00,1.1909
3089.00,1.1908
3088.00,1.1907
3087.00,1.1906
3086.00,1.1905
3085.00,1.1904
3084.00,1.1903
3083.00,1.1903
3082.00,1.1902
3081.00,1.1901
3080.00,1.1900
3079.00,1.1899
3078.00,1.1898
3077.00,1.1899
3076.00,1.1899
3075.00,1.1899
3074.00,1.1899
3073.00,1.1898
3072.00,1.1898
3071.00,1.1897
3070.00,1.1895
3069.00,1.1894
3068.00,1.1893
3067.00,1.1892
3066.00,1.1892
3065.00,1.1892
3064.00,1.1891
3063.00,1.1891
3062.00,1.1891
3061.00,1.1890
3060.00,1.1889
3059.00,1.1888
3058.00,1.1888
3057.00,1.1887
3056.00,1.1886
3055.00,1.1885
3054.00,1.1884
3053.00,1.1883
3052.00,1.1882
3051.00,1.1882
3050.00,1.1881
3049.00,1.1881
3048.00,1.1880
3047.00,1.1879
3046.00,1.1878
3045.00,1.1877
3044.00,1.1876
3043.00,1.1875
3042.00,1.1874
3041.00,1.1874
3040.00,1.1874
3039.00,1.1874
3038.00,1.1873
3037.00,1.1873
3036.00,1.1872
3035.00,1.1870
3034.00,1.1870
3033.00,1.1869
3032.00,1.1869
3031.00,1.1868
3030.00,1.1868
3029.00,1.1867
3028.00,1.1866
3027.00,1.1865
3026.00,1.1864
3025.00,1.1864
3024.00,1.1863
3023.00,1.1862
3022.00,1.1862
3021.00,1.1861
3020.00,1.1861
3019.00,1.1860
3018.00,1.1859
3017.00,1.1858
3016.00,1.1858
3015.00,1.1858
3014.00,1.1857
3013.00,1.1857
3012.00,1.1857
3011.00,1.1857
3010.00,1.1857
3009.00,1.1856
3008.00,1.1856
3007.00,1.1855
3006.00,1.1854
3005.00,1.1854
3004.00,1.1853
3003.00,1.1852
3002.00,1.1851
3001.00,1.1850
3000.00,1.1849
2999.00,1.1848
2998.00,1.1847
2997.00,1.1846
2996.00,1.1845
2995.00,1.1844
2994.00,1.1843
2993.00,1.1842
2992.00,1.1841
2991.00,1.1840
2990.00,1.1840
2989.00,1.1840
2988.00,1.1840
2987.00,1.1839
2986.00,1.1838
2985.00,1.1838
2984.00,1.1836
2983.00,1.1835
2982.00,1.1834
2981.00,1.1833
2980.00,1.1832
2979.00,1.1831
2978.00,1.1830
2977.00,1.1829
2976.00,1.1828
2975.00,1.1827
2974.00,1.1826
2973.00,1.1825
2972.00,1.1824
2971.00,1.1823
2970.00,1.1822
2969.00,1.1822
2968.00,1.1821
2967.00,1.1821
2966.00,1.1821
2965.00,1.1821
2964.00,1.1821
2963.00,1.1820
2962.00,1.1820
2961.00,1.1820
2960.00,1.1820
2959.00,1.1819
2958.00,1.1819
2957.00,1.1818
2956.00,1.1817
2955.00,1.1816
2954.00,1.1815
2953.00,1.1814
2952.00,1.1813
2951.00,1.1811
2950.00,1.1810
2949.00,1.1808
2948.00,1.1806
2947.00,1.1804
2946.00,1.1803
2945.00,1.1801
2944.00,1.1800
2943.00,1.1799
2942.00,1.1798
2941.00,1.1798
2940.00,1.1797
2939.00,1.1796
2938.00,1.1795
2937.00,1.1794
2936.00,1.1794
2935.00,1.1794
2934.00,1.1793
2933.00,1.1793
2932.00,1.1792
2931.00,1.1791
2930.00,1.1790
2929.00,1.1789
2928.00,1.1790
2927.00,1.1790
2926.00,1.1792
2925.00,1.1793
2924.00,1.1795
2923.00,1.1797
2922.00,1.1798
2921.00,1.1799
2920.00,1.1799
2919.00,1.1798
2918.00,1.1798
2917.00,1.1797
2916.00,1.1796
2915.00,1.1794
2914.00,1.1792
2913.00,1.1790
2912.00,1.1789
2911.00,1.1787
2910.00,1.1786
2909.00,1.1784
2908.00,1.1783
2907.00,1.1782
2906.00,1.1781
2905.00,1.1780
2904.00,1.1779
2903.00,1.1778
2902.00,1.1777
2901.00,1.1776
2900.00,1.1775
2899.00,1.1774
2898.00,1.1773
2897.00,1.1772
2896.00,1.1771
2895.00,1.1770
2894.00,1.1769
2893.00,1.1768
2892.00,1.1767
2891.00,1.1766
2890.00,1.1766
2889.00,1.1765
2888.00,1.1764
2887.00,1.1763
2886.00,1.1762
2885.00,1.1761
2884.00,1.1760
2883.00,1.1759
2882.00,1.1758
2881.00,1.1757
2880.00,1.1755
2879.00,1.1754
2878.00,1.1753
2877.00,1.1752
2876.00,1.1750
2875.00,1.1749
2874.00,1.1747
2873.00,1.1746
2872.00,1.1745
2871.00,1.1744
2870.00,1.1743
2869.00,1.1742
2868.00,1.1741
2867.00,1.1740
2866.00,1.1739
2865.00,1.1738
2864.00,1.1738
2863.00,1.1738
2862.00,1.1738
2861.00,1.1739
2860.00,1.1740
2859.00,1.1741
2858.00,1.1742
2857.00,1.1742
2856.00,1.1742
2855.00,1.1741
2854.00,1.1742
2853.00,1.1742
2852.00,1.1742
2851.00,1.1742
2850.00,1.1742
2849.00,1.1743
2848.00,1.1742
2847.00,1.1742
2846.00,1.1741
2845.00,1.1740
2844.00,1.1739
2843.00,1.1737
2842.00,1.1736
2841.00,1.1735
2840.00,1.1733
2839.00,1.1732
2838.00,1.1731
2837.00,1.1730
2836.00,1.1729
2835.00,1.1729
2834.00,1.1728
2833.00,1.1728
2832.00,1.1728
2831.00,1.1727
2830.00,1.1726
2829.00,1.1726
2828.00,1.1725
2827.00,1.1724
2826.00,1.1724
2825.00,1.1723
2824.00,1.1723
2823.00,1.1722
2822.00,1.1722
2821.00,1.1721
2820.00,1.1720
2819.00,1.1720
2818.00,1.1719
2817.00,1.1719
2816.00,1.1718
2815.00,1.1718
2814.00,1.1718
2813.00,1.1717
2812.00,1.1716
2811.00,1.1715
2810.00,1.1715
2809.00,1.1714
2808.00,1.1714
2807.00,1.1713
2806.00,1.1713
2805.00,1.1713
2804.00,1.1712
2803.00,1.1712
2802.00,1.1711
2801.00,1.1710
2800.00,1.1710
2799.00,1.1709
2798.00,1.1709
2797.00,1.1708
2796.00,1.1708
2795.00,1.1708
2794.00,1.1707
2793.00,1.1707
2792.00,1.1707
2791.00,1.1707
2790.00,1.1706
2789.00,1.1706
2788.00,1.1706
2787.00,1.1706
2786.00,1.1705
2785.00,1.1705
2784.00,1.1705
2783.00,1.1704
2782.00,1.1704
2781.00,1.1704
2780.00,1.1704
2779.00,1.1703
2778.00,1.1703
2777.00,1.1702
2776.00,1.1702
2775.00,1.1701
2774.00,1.1701
2773.00,1.1701
2772.00,1.1701
2771.00,1.1700
2770.00,1.1700
2769.00,1.1699
2768.00,1.1699
2767.00,1.1699
2766.00,1.1699
2765.00,1.1699
2764.00,1.1698
2763.00,1.1698
2762.00,1.1698
2761.00,1.1698
2760.00,1.1698
2759.00,1.1697
2758.00,1.1697
2757.00,1.1696
2756.00,1.1696
2755.00,1.1696
2754.00,1.1696
2753.00,1.1696
2752.00,1.1695
2751.00,1.1695
2750.00,1.1695
2749.00,1.1694
2748.00,1.1694
2747.00,1.1694
2746.00,1.1694
2745.00,1.1694
2744.00,1.1694
2743.00,1.1694
2742.00,1.1694
2741.00,1.1694
2740.00,1.1694
2739.00,1.1693
2738.00,1.1693
2737.00,1.1693
2736.00,1.1693
2735.00,1.1692
2734.00,1.1692
2733.00,1.1692
2732.00,1.1692
2731.00,1.1692
2730.00,1.1691
2729.00,1.1691
2728.00,1.1691
2727.00,1.1691
2726.00,1.1690
2725.00,1.1690
2724.00,1.1690
2723.00,1.1690
2722.00,1.1690
2721.00,1.1690
2720.00,1.1690
2719.00,1.1689
2718.00,1.1689
2717.00,1.1689
2716.00,1.1688
2715.00,1.1688
2714.00,1.1688
2713.00,1.1688
2712.00,1.1688
2711.00,1.1688
2710.00,1.1688
2709.00,1.1688
2708.00,1.1688
2707.00,1.1688
2706.00,1.1688
2705.00,1.1688
2704.00,1.1687
2703.00,1.1687
2702.00,1.1687
2701.00,1.1687
2700.00,1.1687
2699.00,1.1687
2698.00,1.1687
2697.00,1.1687
2696.00,1.1687
2695.00,1.1687
2694.00,1.1687
2693.00,1.1687
2692.00,1.1687
2691.00,1.1687
2690.00,1.1686
2689.00,1.1686
2688.00,1.1686
2687.00,1.1686
2686.00,1.1686
2685.00,1.1687
2684.00,1.1687
2683.00,1.1687
2682.00,1.1686
2681.00,1.1686
2680.00,1.1686
2679.00,1.1686
2678.00,1.1686
2677.00,1.1686
2676.00,1.1686
2675.00,1.1686
2674.00,1.1686
2673.00,1.1686
2672.00,1.1686
2671.00,1.1686
2670.00,1.1686
2669.00,1.1686
2668.00,1.1686
2667.00,1.1686
2666.00,1.1686
2665.00,1.1686
2664.00,1.1687
2663.00,1.1687
2662.00,1.1687
2661.00,1.1687
2660.00,1.1687
2659.00,1.1687
2658.00,1.1687
2657.00,1.1687
2656.00,1.1688
2655.00,1.1688
2654.00,1.1688
2653.00,1.1688
2652.00,1.1688
2651.00,1.1688
2650.00,1.1688
2649.00,1.1689
2648.00,1.1689
2647.00,1.1689
2646.00,1.1689
2645.00,1.1689
2644.00,1.1689
2643.00,1.1689
2642.00,1.1689
2641.00,1.1690
2640.00,1.1690
2639.00,1.1690
2638.00,1.1690
2637.00,1.1690
2636.00,1.1690
2635.00,1.1690
2634.00,1.1690
2633.00,1.1691
2632.00,1.1691
2631.00,1.1691
2630.00,1.1691
2629.00,1.1691
2628.00,1.1691
2627.00,1.1691
2626.00,1.1691
2625.00,1.1691
2624.00,1.1691
2623.00,1.1691
2622.00,1.1692
2621.00,1.1692
2620.00,1.1692
2619.00,1.1692
2618.00,1.1693
2617.00,1.1693
2616.00,1.1693
2615.00,1.1693
2614.00,1.1693
2613.00,1.1693
2612.00,1.1693
2611.00,1.1693
2610.00,1.1693
2609.00,1.1693
2608.00,1.1693
2607.00,1.1693
2606.00,1.1694
2605.00,1.1694
2604.00,1.1695
2603.00,1.1695
2602.00,1.1696
2601.00,1.1696
2600.00,1.1696
2599.00,1.1696
2598.00,1.1696
2597.00,1.1696
2596.00,1.1696
2595.00,1.1697
2594.00,1.1697
2593.00,1.1697
2592.00,1.1698
2591.00,1.1698
2590.00,1.1698
2589.00,1.1698
2588.00,1.1699
2587.00,1.1699
2586.00,1.1699
2585.00,1.1699
2584.00,1.1699
2583.00,1.1700
2582.00,1.1700
2581.00,1.1700
2580.00,1.1701
2579.00,1.1701
2578.00,1.1701
2577.00,1.1701
2576.00,1.1701
2575.00,1.1701
2574.00,1.1701
2573.00,1.1702
2572.00,1.1702
2571.00,1.1702
2570.00,1.1702
2569.00,1.1703
2568.00,1.1703
2567.00,1.1703
2566.00,1.1703
2565.00,1.1704
2564.00,1.1704
2563.00,1.1705
2562.00,1.1705
2561.00,1.1706
2560.00,1.1706
2559.00,1.1707
2558.00,1.1707
2557.00,1.1707
2556.00,1.1708
2555.00,1.1708
2554.00,1.1708
2553.00,1.1708
2552.00,1.1708
2551.00,1.1709
2550.00,1.1709
2549.00,1.1709
2548.00,1.1710
2547.00,1.1710
2546.00,1.1710
2545.00,1.1711
2544.00,1.1711
2543.00,1.1711
2542.00,1.1711
2541.00,1.1712
2540.00,1.1712
2539.00,1.1713
2538.00,1.1713
2537.00,1.1713
2536.00,1.1714
2535.00,1.1714
2534.00,1.1714
2533.00,1.1715
2532.00,1.1715
2531.00,1.1715
2530.00,1.1716
2529.00,1.1716
2528.00,1.1717
2527.00,1.1717
2526.00,1.1718
2525.00,1.1718
2524.00,1.1719
2523.00,1.1719
2522.00,1.1719
2521.00,1.1719
2520.00,1.1720
2519.00,1.1721
2518.00,1.1721
2517.00,1.1722
2516.00,1.1722
2515.00,1.1722
2514.00,1.1722
2513.00,1.1722
2512.00,1.1723
2511.00,1.1723
2510.00,1.1724
2509.00,1.1724
2508.00,1.1724
2507.00,1.1724
2506.00,1.1725
2505.00,1.1726
2504.00,1.1726
2503.00,1.1727
2502.00,1.1727
2501.00,1.1727
2500.00,1.1727
2499.00,1.1728
2498.00,1.1728
2497.00,1.1728
2496.00,1.1728
2495.00,1.1729
2494.00,1.1729
2493.00,1.1730
2492.00,1.1730
2491.00,1.1731
2490.00,1.1730
2489.00,1.1730
2488.00,1.1731
2487.00,1.1731
2486.00,1.1731
2485.00,1.1731
2484.00,1.1732
2483.00,1.1732
2482.00,1.1733
2481.00,1.1733
2480.00,1.1733
2479.00,1.1733
2478.00,1.1733
2477.00,1.1733
2476.00,1.1734
2475.00,1.1734
2474.00,1.1734
2473.00,1.1734
2472.00,1.1734
2471.00,1.1734
2470.00,1.1734
2469.00,1.1734
2468.00,1.1735
2467.00,1.1735
2466.00,1.1736
2465.00,1.1736
2464.00,1.1736
2463.00,1.1736
2462.00,1.1736
2461.00,1.1736
2460.00,1.1736
2459.00,1.1736
2458.00,1.1736
2457.00,1.1736
2456.00,1.1737
2455.00,1.1737
2454.00,1.1737
2453.00,1.1737
2452.00,1.1737
2451.00,1.1736
2450.00,1.1736
2449.00,1.1737
2448.00,1.1737
2447.00,1.1736
2446.00,1.1736
2445.00,1.1736
2444.00,1.1736
2443.00,1.1736
2442.00,1.1735
2441.00,1.1735
2440.00,1.1735
2439.00,1.1735
2438.00,1.1735
2437.00,1.1735
2436.00,1.1735
2435.00,1.1735
2434.00,1.1734
2433.00,1.1734
2432.00,1.1734
2431.00,1.1734
2430.00,1.1733
2429.00,1.1733
2428.00,1.1733
2427.00,1.1733
2426.00,1.1733
2425.00,1.1733
2424.00,1.1733
2423.00,1.1733
2422.00,1.1733
2421.00,1.1733
2420.00,1.1733
2419.00,1.1732
2418.00,1.1732
2417.00,1.1732
2416.00,1.1731
2415.00,1.1731
2414.00,1.1731
2413.00,1.1731
2412.00,1.1730
2411.00,1.1730
2410.00,1.1730
2409.00,1.1729
2408.00,1.1729
2407.00,1.1729
2406.00,1.1729
2405.00,1.1729
2404.00,1.1728
2403.00,1.1728
2402.00,1.1728
2401.00,1.1728
2400.00,1.1728
2399.00,1.1728
2398.00,1.1728
2397.00,1.1728
2396.00,1.1727
2395.00,1.1727
2394.00,1.1727
2393.00,1.1726
2392.00,1.1726
2391.00,1.1726
2390.00,1.1726
2389.00,1.1726
2388.00,1.1727
2387.00,1.1727
2386.00,1.1727
2385.00,1.1727
2384.00,1.1727
2383.00,1.1728
2382.00,1.1729
2381.00,1.1730
2380.00,1.1731
2379.00,1.1732
2378.00,1.1733
2377.00,1.1734
2376.00,1.1735
2375.00,1.1736
2374.00,1.1736
2373.00,1.1736
2372.00,1.1735
2371.00,1.1734
2370.00,1.1734
2369.00,1.1734
2368.00,1.1734
2367.00,1.1734
2366.00,1.1735
2365.00,1.1735
2364.00,1.1736
2363.00,1.1736
2362.00,1.1737
2361.00,1.1737
2360.00,1.1738
2359.00,1.1738
2358.00,1.1738
2357.00,1.1738
2356.00,1.1739
2355.00,1.1739
2354.00,1.1740
2353.00,1.1740
2352.00,1.1740
2351.00,1.1741
2350.00,1.1740
2349.00,1.1738
2348.00,1.1737
2347.00,1.1735
2346.00,1.1735
2345.00,1.1737
2344.00,1.1741
2343.00,1.1744
2342.00,1.1747
2341.00,1.1750
2340.00,1.1751
2339.00,1.1751
2338.00,1.1749
2337.00,1.1748
2336.00,1.1746
2335.00,1.1744
2334.00,1.1743
2333.00,1.1743
2332.00,1.1743
2331.00,1.1743
2330.00,1.1742
2329.00,1.1742
2328.00,1.1742
2327.00,1.1742
2326.00,1.1742
2325.00,1.1742
2324.00,1.1743
2323.00,1.1744
2322.00,1.1744
2321.00,1.1744
2320.00,1.1744
2319.00,1.1744
2318.00,1.1744
2317.00,1.1744
2316.00,1.1744
2315.00,1.1745
2314.00,1.1744
2313.00,1.1745
2312.00,1.1745
2311.00,1.1745
2310.00,1.1745
2309.00,1.1745
2308.00,1.1745
2307.00,1.1745
2306.00,1.1744
2305.00,1.1744
2304.00,1.1744
2303.00,1.1744
2302.00,1.1744
2301.00,1.1744
2300.00,1.1744
2299.00,1.1744
2298.00,1.1744
2297.00,1.1744
2296.00,1.1744
2295.00,1.1745
2294.00,1.1745
2293.00,1.1745
2292.00,1.1745
2291.00,1.1745
2290.00,1.1744
2289.00,1.1745
2288.00,1.1745
2287.00,1.1745
2286.00,1.1746
2285.00,1.1746
2284.00,1.1747
2283.00,1.1747
2282.00,1.1747
2281.00,1.1747
2280.00,1.1747
2279.00,1.1747
2278.00,1.1747
2277.00,1.1747
2276.00,1.1748
2275.00,1.1749
2274.00,1.1749
2273.00,1.1749
2272.00,1.1749
2271.00,1.1750
2270.00,1.1750
2269.00,1.1750
2268.00,1.1750
2267.00,1.1750
2266.00,1.1750
2265.00,1.1750
2264.00,1.1750
2263.00,1.1750
2262.00,1.1750
2261.00,1.1751
2260.00,1.1751
2259.00,1.1751
2258.00,1.1751
2257.00,1.1752
2256.00,1.1752
2255.00,1.1753
2254.00,1.1753
2253.00,1.1753
2252.00,1.1753
2251.00,1.1753
2250.00,1.1753
2249.00,1.1753
2248.00,1.1754
2247.00,1.1754
2246.00,1.1754
2245.00,1.1753
2244.00,1.1753
2243.00,1.1753
2242.00,1.1753
2241.00,1.1753
2240.00,1.1753
2239.00,1.1754
2238.00,1.1754
2237.00,1.1754
2236.00,1.1754
2235.00,1.1754
2234.00,1.1754
2233.00,1.1754
2232.00,1.1755
2231.00,1.1755
2230.00,1.1755
2229.00,1.1755
2228.00,1.1756
2227.00,1.1756
2226.00,1.1756
2225.00,1.1756
2224.00,1.1756
2223.00,1.1756
2222.00,1.1756
2221.00,1.1755
2220.00,1.1755
2219.00,1.1755
2218.00,1.1755
2217.00,1.1755
2216.00,1.1755
2215.00,1.1755
2214.00,1.1755
2213.00,1.1755
2212.00,1.1755
2211.00,1.1755
2210.00,1.1754
2209.00,1.1754
2208.00,1.1754
2207.00,1.1754
2206.00,1.1754
2205.00,1.1754
2204.00,1.1754
2203.00,1.1754
2202.00,1.1754
2201.00,1.1754
2200.00,1.1754
2199.00,1.1754
2198.00,1.1754
2197.00,1.1754
2196.00,1.1754
2195.00,1.1753
2194.00,1.1753
2193.00,1.1753
2192.00,1.1753
2191.00,1.1753
2190.00,1.1753
2189.00,1.1753
2188.00,1.1753
2187.00,1.1753
2186.00,1.1752
2185.00,1.1752
2184.00,1.1752
2183.00,1.1752
2182.00,1.1752
2181.00,1.1752
2180.00,1.1752
2179.00,1.1751
2178.00,1.1751
2177.00,1.1750
2176.00,1.1750
2175.00,1.1750
2174.00,1.1749
2173.00,1.1749
2172.00,1.1749
2171.00,1.1749
2170.00,1.1749
2169.00,1.1749
2168.00,1.1749
2167.00,1.1748
2166.00,1.1747
2165.00,1.1747
2164.00,1.1747
2163.00,1.1746
2162.00,1.1746
2161.00,1.1745
2160.00,1.1745
2159.00,1.1745
2158.00,1.1745
2157.00,1.1745
2156.00,1.1744
2155.00,1.1744
2154.00,1.1743
2153.00,1.1743
2152.00,1.1743
2151.00,1.1742
2150.00,1.1742
2149.00,1.1742
2148.00,1.1742
2147.00,1.1741
2146.00,1.1740
2145.00,1.1740
2144.00,1.1740
2143.00,1.1739
2142.00,1.1738
2141.00,1.1738
2140.00,1.1737
2139.00,1.1737
2138.00,1.1736
2137.00,1.1736
2136.00,1.1736
2135.00,1.1736
2134.00,1.1735
2133.00,1.1735
2132.00,1.1735
2131.00,1.1734
2130.00,1.1733
2129.00,1.1733
2128.00,1.1732
2127.00,1.1731
2126.00,1.1731
2125.00,1.1731
2124.00,1.1730
2123.00,1.1730
2122.00,1.1729
2121.00,1.1728
2120.00,1.1728
2119.00,1.1728
2118.00,1.1727
2117.00,1.1727
2116.00,1.1726
2115.00,1.1726
2114.00,1.1725
2113.00,1.1724
2112.00,1.1724
2111.00,1.1723
2110.00,1.1722
2109.00,1.1722
2108.00,1.1722
2107.00,1.1721
2106.00,1.1721
2105.00,1.1720
2104.00,1.1720
2103.00,1.1719
2102.00,1.1719
2101.00,1.1718
2100.00,1.1718
2099.00,1.1717
2098.00,1.1716
2097.00,1.1716
2096.00,1.1716
2095.00,1.1715
2094.00,1.1715
2093.00,1.1714
2092.00,1.1714
2091.00,1.1713
2090.00,1.1712
2089.00,1.1712
2088.00,1.1712
2087.00,1.1711
2086.00,1.1710
2085.00,1.1709
2084.00,1.1709
2083.00,1.1708
2082.00,1.1707
2081.00,1.1706
2080.00,1.1706
2079.00,1.1706
2078.00,1.1705
2077.00,1.1704
2076.00,1.1704
2075.00,1.1703
2074.00,1.1702
2073.00,1.1702
2072.00,1.1701
2071.00,1.1700
2070.00,1.1699
2069.00,1.1699
2068.00,1.1698
2067.00,1.1698
2066.00,1.1697
2065.00,1.1696
2064.00,1.1696
2063.00,1.1695
2062.00,1.1694
2061.00,1.1694
2060.00,1.1693
2059.00,1.1692
2058.00,1.1692
2057.00,1.1691
2056.00,1.1691
2055.00,1.1690
2054.00,1.1689
2053.00,1.1689
2052.00,1.1688
2051.00,1.1687
2050.00,1.1686
2049.00,1.1686
2048.00,1.1685
2047.00,1.1685
2046.00,1.1684
2045.00,1.1684
2044.00,1.1684
2043.00,1.1684
2042.00,1.1683
2041.00,1.1682
2040.00,1.1681
2039.00,1.1680
2038.00,1.1679
2037.00,1.1679
2036.00,1.1679
2035.00,1.1678
2034.00,1.1677
2033.00,1.1677
2032.00,1.1676
2031.00,1.1676
2030.00,1.1675
2029.00,1.1674
2028.00,1.1674
2027.00,1.1673
2026.00,1.1672
2025.00,1.1672
2024.00,1.1671
2023.00,1.1671
2022.00,1.1670
2021.00,1.1669
2020.00,1.1669
2019.00,1.1668
2018.00,1.1668
2017.00,1.1667
2016.00,1.1667
2015.00,1.1666
2014.00,1.1665
2013.00,1.1665
2012.00,1.1665
2011.00,1.1664
2010.00,1.1663
2009.00,1.1663
2008.00,1.1663
2007.00,1.1662
2006.00,1.1661
2005.00,1.1661
2004.00,1.1661
2003.00,1.1660
2002.00,1.1660
2001.00,1.1660
2000.00,1.1659
1999.00,1.1659
1998.00,1.1658
1997.00,1.1658
1996.00,1.1657
1995.00,1.1657
1994.00,1.1657
1993.00,1.1657
1992.00,1.1657
1991.00,1.1656
1990.00,1.1655
1989.00,1.1655
1988.00,1.1654
1987.00,1.1654
1986.00,1.1654
1985.00,1.1653
1984.00,1.1653
1983.00,1.1652
1982.00,1.1651
1981.00,1.1651
1980.00,1.1651
1979.00,1.1650
1978.00,1.1650
1977.00,1.1650
1976.00,1.1649
1975.00,1.1649
1974.00,1.1649
1973.00,1.1648
1972.00,1.1648
1971.00,1.1647
1970.00,1.1647
1969.00,1.1648
1968.00,1.1648
1967.00,1.1648
1966.00,1.1647
1965.00,1.1647
1964.00,1.1646
1963.00,1.1646
1962.00,1.1645
1961.00,1.1645
1960.00,1.1644
1959.00,1.1644
1958.00,1.1645
1957.00,1.1646
1956.00,1.1646
1955.00,1.1645
1954.00,1.1645
1953.00,1.1644
1952.00,1.1644
1951.00,1.1643
1950.00,1.1643
1949.00,1.1643
1948.00,1.1643
1947.00,1.1643
1946.00,1.1643
1945.00,1.1644
1944.00,1.1644
1943.00,1.1644
1942.00,1.1643
1941.00,1.1643
1940.00,1.1642
1939.00,1.1641
1938.00,1.1641
1937.00,1.1642
1936.00,1.1642
1935.00,1.1641
1934.00,1.1641
1933.00,1.1642
1932.00,1.1642
1931.00,1.1642
1930.00,1.1641
1929.00,1.1642
1928.00,1.1642
1927.00,1.1641
1926.00,1.1641
1925.00,1.1642
1924.00,1.1643
1923.00,1.1643
1922.00,1.1642
1921.00,1.1642
1920.00,1.1643
1919.00,1.1644
1918.00,1.1643
1917.00,1.1643
1916.00,1.1642
1915.00,1.1641
1914.00,1.1641
1913.00,1.1641
1912.00,1.1642
1911.00,1.1642
1910.00,1.1642
1909.00,1.1642
1908.00,1.1643
1907.00,1.1643
1906.00,1.1642
1905.00,1.1643
1904.00,1.1643
1903.00,1.1643
1902.00,1.1642
1901.00,1.1643
1900.00,1.1643
1899.00,1.1643
1898.00,1.1643
1897.00,1.1643
1896.00,1.1644
1895.00,1.1644
1894.00,1.1643
1893.00,1.1644
1892.00,1.1645
1891.00,1.1645
1890.00,1.1645
1889.00,1.1645
1888.00,1.1645
1887.00,1.1645
1886.00,1.1644
1885.00,1.1644
1884.00,1.1645
1883.00,1.1645
1882.00,1.1644
1881.00,1.1645
1880.00,1.1646
1879.00,1.1646
1878.00,1.1645
1877.00,1.1645
1876.00,1.1646
1875.00,1.1646
1874.00,1.1645
1873.00,1.1645
1872.00,1.1647
1871.00,1.1648
1870.00,1.1649
1869.00,1.1650
1868.00,1.1650
1867.00,1.1648
1866.00,1.1646
1865.00,1.1646
1864.00,1.1647
1863.00,1.1647
1862.00,1.1646
1861.00,1.1647
1860.00,1.1648
1859.00,1.1648
1858.00,1.1647
1857.00,1.1648
1856.00,1.1649
1855.00,1.1649
1854.00,1.1648
1853.00,1.1648
1852.00,1.1649
1851.00,1.1649
1850.00,1.1649
1849.00,1.1649
1848.00,1.1650
1847.00,1.1652
1846.00,1.1655
1845.00,1.1657
1844.00,1.1657
1843.00,1.1654
1842.00,1.1651
1841.00,1.1650
1840.00,1.1650
1839.00,1.1651
1838.00,1.1651
1837.00,1.1652
1836.00,1.1653
1835.00,1.1653
1834.00,1.1653
1833.00,1.1654
1832.00,1.1657
1831.00,1.1659
1830.00,1.1659
1829.00,1.1658
1828.00,1.1657
1827.00,1.1656
1826.00,1.1656
1825.00,1.1656
1824.00,1.1657
1823.00,1.1657
1822.00,1.1658
1821.00,1.1658
1820.00,1.1660
1819.00,1.1660
1818.00,1.1660
1817.00,1.1660
1816.00,1.1662
1815.00,1.1663
1814.00,1.1662
1813.00,1.1662
1812.00,1.1663
1811.00,1.1664
1810.00,1.1663
1809.00,1.1664
1808.00,1.1665
1807.00,1.1666
1806.00,1.1665
1805.00,1.1665
1804.00,1.1667
1803.00,1.1667
1802.00,1.1666
1801.00,1.1666
1800.00,1.1667
1799.00,1.1667
1798.00,1.1667
1797.00,1.1668
1796.00,1.1669
1795.00,1.1670
1794.00,1.1669
1793.00,1.1669
1792.00,1.1670
1791.00,1.1671
1790.00,1.1670
1789.00,1.1670
1788.00,1.1672
1787.00,1.1673
1786.00,1.1673
1785.00,1.1674
1784.00,1.1676
1783.00,1.1677
1782.00,1.1677
1781.00,1.1677
1780.00,1.1678
1779.00,1.1678
1778.00,1.1679
1777.00,1.1680
1776.00,1.1681
1775.00,1.1682
1774.00,1.1684
1773.00,1.1684
1772.00,1.1684
1771.00,1.1684
1770.00,1.1684
1769.00,1.1684
1768.00,1.1685
1767.00,1.1687
1766.00,1.1688
1765.00,1.1688
1764.00,1.1690
1763.00,1.1692
1762.00,1.1693
1761.00,1.1693
1760.00,1.1693
1759.00,1.1694
1758.00,1.1696
1757.00,1.1696
1756.00,1.1695
1755.00,1.1694
1754.00,1.1694
1753.00,1.1693
1752.00,1.1692
1751.00,1.1693
1750.00,1.1695
1749.00,1.1697
1748.00,1.1699
1747.00,1.1701
1746.00,1.1703
1745.00,1.1705
1744.00,1.1706
1743.00,1.1706
1742.00,1.1707
1741.00,1.1707
1740.00,1.1707
1739.00,1.1708
1738.00,1.1708
1737.00,1.1708
1736.00,1.1708
1735.00,1.1706
1734.00,1.1706
1733.00,1.1708
1732.00,1.1711
1731.00,1.1713
1730.00,1.1715
1729.00,1.1717
1728.00,1.1719
1727.00,1.1720
1726.00,1.1720
1725.00,1.1722
1724.00,1.1724
1723.00,1.1724
1722.00,1.1721
1721.00,1.1721
1720.00,1.1722
1719.00,1.1723
1718.00,1.1721
1717.00,1.1722
1716.00,1.1726
1715.00,1.1727
1714.00,1.1724
1713.00,1.1724
1712.00,1.1728
1711.00,1.1730
1710.00,1.1728
1709.00,1.1728
1708.00,1.1730
1707.00,1.1731
1706.00,1.1729
1705.00,1.1729
1704.00,1.1730
1703.00,1.1730
1702.00,1.1728
1701.00,1.1726
1700.00,1.1728
1699.00,1.1729
1698.00,1.1729
1697.00,1.1733
1696.00,1.1737
1695.00,1.1739
1694.00,1.1738
1693.00,1.1737
1692.00,1.1737
1691.00,1.1738
1690.00,1.1738
1689.00,1.1738
1688.00,1.1737
1687.00,1.1739
1686.00,1.1742
1685.00,1.1746
1684.00,1.1745
1683.00,1.1744
1682.00,1.1744
1681.00,1.1744
1680.00,1.1743
1679.00,1.1742
1678.00,1.1743
1677.00,1.1743
1676.00,1.1741
1675.00,1.1740
1674.00,1.1742
1673.00,1.1744
1672.00,1.1743
1671.00,1.1743
1670.00,1.1745
1669.00,1.1747
1668.00,1.1747
1667.00,1.1747
1666.00,1.1749
1665.00,1.1751
1664.00,1.1751
1663.00,1.1750
1662.00,1.1751
1661.00,1.1752
1660.00,1.1751
1659.00,1.1750
1658.00,1.1752
1657.00,1.1753
1656.00,1.1752
1655.00,1.1753
1654.00,1.1755
1653.00,1.1755
1652.00,1.1755
1651.00,1.1756
1650.00,1.1756
1649.00,1.1755
1648.00,1.1754
1647.00,1.1755
1646.00,1.1755
1645.00,1.1756
1644.00,1.1756
1643.00,1.1756
1642.00,1.1756
1641.00,1.1755
1640.00,1.1755
1639.00,1.1755
1638.00,1.1756
1637.00,1.1756
1636.00,1.1756
1635.00,1.1756
1634.00,1.1757
1633.00,1.1758
1632.00,1.1759
1631.00,1.1758
1630.00,1.1758
1629.00,1.1758
1628.00,1.1759
1627.00,1.1759
1626.00,1.1759
1625.00,1.1759
1624.00,1.1758
1623.00,1.1757
1622.00,1.1758
1621.00,1.1759
1620.00,1.1759
1619.00,1.1759
1618.00,1.1761
1617.00,1.1763
1616.00,1.1763
1615.00,1.1762
1614.00,1.1762
1613.00,1.1763
1612.00,1.1762
1611.00,1.1761
1610.00,1.1763
1609.00,1.1766
1608.00,1.1767
1607.00,1.1767
1606.00,1.1770
1605.00,1.1771
1604.00,1.1771
1603.00,1.1771
1602.00,1.1772
1601.00,1.1773
1600.00,1.1772
1599.00,1.1771
1598.00,1.1772
1597.00,1.1773
1596.00,1.1772
1595.00,1.1772
1594.00,1.1772
1593.00,1.1773
1592.00,1.1773
1591.00,1.1772
1590.00,1.1773
1589.00,1.1774
1588.00,1.1774
1587.00,1.1773
1586.00,1.1774
1585.00,1.1775
1584.00,1.1774
1583.00,1.1773
1582.00,1.1775
1581.00,1.1777
1580.00,1.1776
1579.00,1.1777
1578.00,1.1779
1577.00,1.1781
1576.00,1.1780
1575.00,1.1778
1574.00,1.1778
1573.00,1.1778
1572.00,1.1776
1571.00,1.1775
1570.00,1.1777
1569.00,1.1777
1568.00,1.1774
1567.00,1.1773
1566.00,1.1775
1565.00,1.1776
1564.00,1.1775
1563.00,1.1775
1562.00,1.1779
1561.00,1.1782
1560.00,1.1779
1559.00,1.1777
1558.00,1.1777
1557.00,1.1779
1556.00,1.1778
1555.00,1.1777
1554.00,1.1778
1553.00,1.1778
1552.00,1.1777
1551.00,1.1777
1550.00,1.1778
1549.00,1.1779
1548.00,1.1777
1547.00,1.1776
1546.00,1.1778
1545.00,1.1780
1544.00,1.1782
1543.00,1.1782
1542.00,1.1782
1541.00,1.1782
1540.00,1.1781
1539.00,1.1779
1538.00,1.1780
1537.00,1.1782
1536.00,1.1783
1535.00,1.1782
1534.00,1.1781
1533.00,1.1782
1532.00,1.1782
1531.00,1.1781
1530.00,1.1780
1529.00,1.1781
1528.00,1.1782
1527.00,1.1781
1526.00,1.1781
1525.00,1.1780
1524.00,1.1779
1523.00,1.1779
1522.00,1.1779
1521.00,1.1779
1520.00,1.1779
1519.00,1.1779
1518.00,1.1778
1517.00,1.1777
1516.00,1.1777
1515.00,1.1778
1514.00,1.1777
1513.00,1.1777
1512.00,1.1778
1511.00,1.1779
1510.00,1.1777
1509.00,1.1774
1508.00,1.1773
1507.00,1.1772
1506.00,1.1770
1505.00,1.1769
1504.00,1.1770
1503.00,1.1772
1502.00,1.1771
1501.00,1.1769
1500.00,1.1767
1499.00,1.1765
1498.00,1.1763
1497.00,1.1762
1496.00,1.1765
1495.00,1.1772
1494.00,1.1778
1493.00,1.1782
1492.00,1.1786
1491.00,1.1788
1490.00,1.1787
1489.00,1.1787
1488.00,1.1789
1487.00,1.1787
1486.00,1.1785
1485.00,1.1784
1484.00,1.1784
1483.00,1.1783
1482.00,1.1781
1481.00,1.1780
1480.00,1.1780
1479.00,1.1778
1478.00,1.1776
1477.00,1.1775
1476.00,1.1775
1475.00,1.1774
1474.00,1.1771
1473.00,1.1770
1472.00,1.1770
1471.00,1.1771
1470.00,1.1772
1469.00,1.1773
1468.00,1.1775
1467.00,1.1775
1466.00,1.1774
1465.00,1.1772
1464.00,1.1771
1463.00,1.1772
1462.00,1.1771
1461.00,1.1770
1460.00,1.1769
1459.00,1.1770
1458.00,1.1768
1457.00,1.1765
1456.00,1.1761
1455.00,1.1761
1454.00,1.1764
1453.00,1.1766
1452.00,1.1769
1451.00,1.1772
1450.00,1.1776
1449.00,1.1777
1448.00,1.1777
1447.00,1.1778
1446.00,1.1778
1445.00,1.1775
1444.00,1.1772
1443.00,1.1772
1442.00,1.1773
1441.00,1.1771
1440.00,1.1769
1439.00,1.1770
1438.00,1.1771
1437.00,1.1768
1436.00,1.1765
1435.00,1.1767
1434.00,1.1769
1433.00,1.1768
1432.00,1.1766
1431.00,1.1767
1430.00,1.1768
1429.00,1.1767
1428.00,1.1766
1427.00,1.1766
1426.00,1.1767
1425.00,1.1765
1424.00,1.1762
1423.00,1.1763
1422.00,1.1767
1421.00,1.1768
1420.00,1.1767
1419.00,1.1767
1418.00,1.1767
1417.00,1.1763
1416.00,1.1760
1415.00,1.1761
1414.00,1.1764
1413.00,1.1763
1412.00,1.1761
1411.00,1.1761
1410.00,1.1762
1409.00,1.1760
1408.00,1.1758
1407.00,1.1758
1406.00,1.1760
1405.00,1.1760
1404.00,1.1759
1403.00,1.1760
1402.00,1.1762
1401.00,1.1762
1400.00,1.1760
1399.00,1.1760
1398.00,1.1761
1397.00,1.1761
1396.00,1.1760
1395.00,1.1761
1394.00,1.1761
1393.00,1.1760
1392.00,1.1757
1391.00,1.1756
1390.00,1.1757
1389.00,1.1758
1388.00,1.1757
1387.00,1.1755
1386.00,1.1755
1385.00,1.1754
1384.00,1.1754
1383.00,1.1754
1382.00,1.1755
1381.00,1.1755
1380.00,1.1753
1379.00,1.1752
1378.00,1.1752
1377.00,1.1752
1376.00,1.1751
1375.00,1.1750
1374.00,1.1750
1373.00,1.1750
1372.00,1.1749
1371.00,1.1748
1370.00,1.1748
1369.00,1.1748
1368.00,1.1747
1367.00,1.1746
1366.00,1.1747
1365.00,1.1747
1364.00,1.1747
1363.00,1.1746
1362.00,1.1746
1361.00,1.1746
1360.00,1.1745
1359.00,1.1744
1358.00,1.1744
1357.00,1.1743
1356.00,1.1743
1355.00,1.1742
1354.00,1.1742
1353.00,1.1742
1352.00,1.1741
1351.00,1.1740
1350.00,1.1740
1349.00,1.1740
1348.00,1.1739
1347.00,1.1738
1346.00,1.1738
1345.00,1.1738
1344.00,1.1738
1343.00,1.1737
1342.00,1.1737
1341.00,1.1737
1340.00,1.1736
1339.00,1.1736
1338.00,1.1736
1337.00,1.1736
1336.00,1.1735
1335.00,1.1735
1334.00,1.1734
1333.00,1.1734
1332.00,1.1733
1331.00,1.1733
1330.00,1.1733
1329.00,1.1732
1328.00,1.1731
1327.00,1.1730
1326.00,1.1730
1325.00,1.1730
1324.00,1.1729
1323.00,1.1729
1322.00,1.1729
1321.00,1.1729
1320.00,1.1728
1319.00,1.1728
1318.00,1.1727
1317.00,1.1727
1316.00,1.1726
1315.00,1.1725
1314.00,1.1725
1313.00,1.1725
1312.00,1.1725
1311.00,1.1724
1310.00,1.1724
1309.00,1.1723
1308.00,1.1722
1307.00,1.1721
1306.00,1.1721
1305.00,1.1720
1304.00,1.1720
1303.00,1.1720
1302.00,1.1720
1301.00,1.1719
1300.00,1.1718
1299.00,1.1717
1298.00,1.1717
1297.00,1.1716
1296.00,1.1715
1295.00,1.1715
1294.00,1.1715
1293.00,1.1715
1292.00,1.1714
1291.00,1.1714
1290.00,1.1713
1289.00,1.1713
1288.00,1.1712
1287.00,1.1712
1286.00,1.1712
1285.00,1.1712
1284.00,1.1711
1283.00,1.1710
1282.00,1.1710
1281.00,1.1710
1280.00,1.1710
1279.00,1.1709
1278.00,1.1709
1277.00,1.1709
1276.00,1.1708
1275.00,1.1707
1274.00,1.1707
1273.00,1.1707
1272.00,1.1706
1271.00,1.1705
1270.00,1.1706
1269.00,1.1705
1268.00,1.1705
1267.00,1.1704
1266.00,1.1705
1265.00,1.1706
1264.00,1.1707
1263.00,1.1708
1262.00,1.1711
1261.00,1.1713
1260.00,1.1714
1259.00,1.1715
1258.00,1.1717
1257.00,1.1717
1256.00,1.1716
1255.00,1.1715
1254.00,1.1715
1253.00,1.1714
1252.00,1.1712
1251.00,1.1712
1250.00,1.1712
1249.00,1.1712
1248.00,1.1712
1247.00,1.1712
1246.00,1.1713
1245.00,1.1714
1244.00,1.1714
1243.00,1.1715
1242.00,1.1716
1241.00,1.1716
1240.00,1.1716
1239.00,1.1717
1238.00,1.1718
1237.00,1.1719
1236.00,1.1719
1235.00,1.1720
1234.00,1.1721
1233.00,1.1721
1232.00,1.1721
1231.00,1.1721
1230.00,1.1722
1229.00,1.1723
1228.00,1.1723
1227.00,1.1723
1226.00,1.1724
1225.00,1.1724
1224.00,1.1724
1223.00,1.1725
1222.00,1.1725
1221.00,1.1726
1220.00,1.1726
1219.00,1.1726
1218.00,1.1727
1217.00,1.1727
1216.00,1.1727
1215.00,1.1727
1214.00,1.1728
1213.00,1.1728
1212.00,1.1728
1211.00,1.1729
1210.00,1.1731
1209.00,1.1732
1208.00,1.1732
1207.00,1.1732
1206.00,1.1733
1205.00,1.1733
1204.00,1.1733
1203.00,1.1733
1202.00,1.1735
1201.00,1.1736
1200.00,1.1736
1199.00,1.1736
1198.00,1.1737
1197.00,1.1738
1196.00,1.1738
1195.00,1.1739
1194.00,1.1740
1193.00,1.1741
1192.00,1.1741
1191.00,1.1742
1190.00,1.1743
1189.00,1.1745
1188.00,1.1745
1187.00,1.1746
1186.00,1.1748
1185.00,1.1748
1184.00,1.1747
1183.00,1.1747
1182.00,1.1748
1181.00,1.1750
1180.00,1.1752
1179.00,1.1754
1178.00,1.1756
1177.00,1.1757
1176.00,1.1757
1175.00,1.1758
1174.00,1.1759
1173.00,1.1761
1172.00,1.1761
1171.00,1.1762
1170.00,1.1764
1169.00,1.1765
1168.00,1.1765
1167.00,1.1765
1166.00,1.1767
1165.00,1.1767
1164.00,1.1767
1163.00,1.1768
1162.00,1.1770
1161.00,1.1770
1160.00,1.1770
1159.00,1.1770
1158.00,1.1771
1157.00,1.1773
1156.00,1.1773
1155.00,1.1774
1154.00,1.1775
1153.00,1.1775
1152.00,1.1775
1151.00,1.1775
1150.00,1.1776
1149.00,1.1777
1148.00,1.1777
1147.00,1.1777
1146.00,1.1778
1145.00,1.1777
1144.00,1.1777
1143.00,1.1776
1142.00,1.1777
1141.00,1.1778
1140.00,1.1777
1139.00,1.1776
1138.00,1.1776
1137.00,1.1775
1136.00,1.1774
1135.00,1.1775
1134.00,1.1776
1133.00,1.1776
1132.00,1.1775
1131.00,1.1775
1130.00,1.1775
1129.00,1.1774
1128.00,1.1774
1127.00,1.1774
1126.00,1.1774
1125.00,1.1774
1124.00,1.1772
1123.00,1.1771
1122.00,1.1771
1121.00,1.1770
1120.00,1.1768
1119.00,1.1767
1118.00,1.1767
1117.00,1.1767
1116.00,1.1765
1115.00,1.1764
1114.00,1.1764
1113.00,1.1762
1112.00,1.1761
1111.00,1.1760
1110.00,1.1761
1109.00,1.1761
1108.00,1.1760
1107.00,1.1759
1106.00,1.1759
1105.00,1.1759
1104.00,1.1757
1103.00,1.1756
1102.00,1.1755
1101.00,1.1754
1100.00,1.1751
1099.00,1.1749
1098.00,1.1748
1097.00,1.1747
1096.00,1.1745
1095.00,1.1743
1094.00,1.1741
1093.00,1.1740
1092.00,1.1739
1091.00,1.1738
1090.00,1.1737
1089.00,1.1735
1088.00,1.1732
1087.00,1.1730
1086.00,1.1728
1085.00,1.1725
1084.00,1.1722
1083.00,1.1719
1082.00,1.1717
1081.00,1.1715
1080.00,1.1712
1079.00,1.1709
1078.00,1.1706
1077.00,1.1703
1076.00,1.1699
1075.00,1.1696
1074.00,1.1693
1073.00,1.1690
1072.00,1.1685
1071.00,1.1682
1070.00,1.1680
1069.00,1.1678
1068.00,1.1674
1067.00,1.1672
1066.00,1.1670
1065.00,1.1667
1064.00,1.1662
1063.00,1.1658
1062.00,1.1656
1061.00,1.1652
1060.00,1.1647
1059.00,1.1644
1058.00,1.1641
1057.00,1.1638
1056.00,1.1633
1055.00,1.1628
1054.00,1.1625
1053.00,1.1621
1052.00,1.1618
1051.00,1.1615
1050.00,1.1615
1049.00,1.1615
1048.00,1.1612
1047.00,1.1609
1046.00,1.1606
1045.00,1.1601
1044.00,1.1594
1043.00,1.1588
1042.00,1.1583
1041.00,1.1578
1040.00,1.1572
1039.00,1.1567
1038.00,1.1565
1037.00,1.1562
1036.00,1.1558
1035.00,1.1554
1034.00,1.1551
1033.00,1.1547
1032.00,1.1542
1031.00,1.1537
1030.00,1.1534
1029.00,1.1529
1028.00,1.1523
1027.00,1.1520
1026.00,1.1518
1025.00,1.1515
1024.00,1.1511
1023.00,1.1505
1022.00,1.1500
1021.00,1.1495
1020.00,1.1490
1019.00,1.1486
1018.00,1.1484
1017.00,1.1481
1016.00,1.1477
1015.00,1.1474
1014.00,1.1471
1013.00,1.1465
1012.00,1.1458
1011.00,1.1451
1010.00,1.1447
1009.00,1.1443
1008.00,1.1438
1007.00,1.1433
1006.00,1.1432
1005.00,1.1431
1004.00,1.1428
1003.00,1.1428
1002.00,1.1428
1001.00,1.1426
1000.00,1.1421
