PE IR       SUBTECH     SPECTRUM    ASCII       PEDS        4.00        
   -1
TE109A_067_80K_after_130K_SB.ASC
20/04/21
19:22:49.00
20/04/21
19:22:49.00
Administrator
TE109A, Tuesday, April 21 2020, 067.
1000.000000
#HDR
-1
-1
#GR
cm-1
EGY
1.0
0.0
6000.000000
-2.000000
2501
8
11.330969
1.189829
#DATA
6000.000000	1.958639
5998.000000	1.963087
5996.000000	1.966042
5994.000000	1.970250
5992.000000	1.974683
5990.000000	1.979137
5988.000000	1.983005
5986.000000	1.986098
5984.000000	1.990458
5982.000000	1.994812
5980.000000	1.999441
5978.000000	2.003419
5976.000000	2.006558
5974.000000	2.009715
5972.000000	2.014238
5970.000000	2.019223
5968.000000	2.024075
5966.000000	2.029642
5964.000000	2.034516
5962.000000	2.038138
5960.000000	2.039969
5958.000000	2.042951
5956.000000	2.047516
5954.000000	2.052735
5952.000000	2.055835
5950.000000	2.059368
5948.000000	2.064592
5946.000000	2.069420
5944.000000	2.074824
5942.000000	2.079030
5940.000000	2.081964
5938.000000	2.085461
5936.000000	2.089778
5934.000000	2.094446
5932.000000	2.098444
5930.000000	2.102867
5928.000000	2.108332
5926.000000	2.114401
5924.000000	2.117420
5922.000000	2.119468
5920.000000	2.122565
5918.000000	2.126389
5916.000000	2.128781
5914.000000	2.130991
5912.000000	2.134860
5910.000000	2.140411
5908.000000	2.147922
5906.000000	2.153805
5904.000000	2.158716
5902.000000	2.162190
5900.000000	2.164755
5898.000000	2.168801
5896.000000	2.173740
5894.000000	2.178556
5892.000000	2.183779
5890.000000	2.187049
5888.000000	2.190984
5886.000000	2.195709
5884.000000	2.200745
5882.000000	2.205591
5880.000000	2.209309
5878.000000	2.211944
5876.000000	2.215366
5874.000000	2.219604
5872.000000	2.224450
5870.000000	2.230301
5868.000000	2.236459
5866.000000	2.242513
5864.000000	2.246267
5862.000000	2.248847
5860.000000	2.251485
5858.000000	2.255616
5856.000000	2.259250
5854.000000	2.262155
5852.000000	2.266552
5850.000000	2.271740
5848.000000	2.277799
5846.000000	2.283334
5844.000000	2.289123
5842.000000	2.294920
5840.000000	2.299958
5838.000000	2.302803
5836.000000	2.305329
5834.000000	2.310138
5832.000000	2.316598
5830.000000	2.324296
5828.000000	2.330262
5826.000000	2.334020
5824.000000	2.337556
5822.000000	2.340955
5820.000000	2.346082
5818.000000	2.351700
5816.000000	2.356867
5814.000000	2.361936
5812.000000	2.366094
5810.000000	2.369856
5808.000000	2.373993
5806.000000	2.378990
5804.000000	2.385672
5802.000000	2.391841
5800.000000	2.397710
5798.000000	2.402048
5796.000000	2.405114
5794.000000	2.407763
5792.000000	2.410108
5790.000000	2.415692
5788.000000	2.422471
5786.000000	2.428184
5784.000000	2.432810
5782.000000	2.436643
5780.000000	2.441677
5778.000000	2.446847
5776.000000	2.450356
5774.000000	2.454569
5772.000000	2.458936
5770.000000	2.464485
5768.000000	2.470944
5766.000000	2.476720
5764.000000	2.481987
5762.000000	2.485982
5760.000000	2.489798
5758.000000	2.495650
5756.000000	2.502527
5754.000000	2.508965
5752.000000	2.514852
5750.000000	2.519097
5748.000000	2.522582
5746.000000	2.526330
5744.000000	2.531250
5742.000000	2.536733
5740.000000	2.541511
5738.000000	2.546855
5736.000000	2.553043
5734.000000	2.557105
5732.000000	2.559956
5730.000000	2.563569
5728.000000	2.569958
5726.000000	2.575603
5724.000000	2.579088
5722.000000	2.582825
5720.000000	2.588336
5718.000000	2.594222
5716.000000	2.599243
5714.000000	2.603657
5712.000000	2.609497
5710.000000	2.615478
5708.000000	2.620188
5706.000000	2.624680
5704.000000	2.629490
5702.000000	2.634570
5700.000000	2.639577
5698.000000	2.643694
5696.000000	2.649506
5694.000000	2.655118
5692.000000	2.660505
5690.000000	2.666151
5688.000000	2.671513
5686.000000	2.678486
5684.000000	2.684888
5682.000000	2.689767
5680.000000	2.694301
5678.000000	2.700077
5676.000000	2.706379
5674.000000	2.712159
5672.000000	2.716487
5670.000000	2.722286
5668.000000	2.727235
5666.000000	2.730885
5664.000000	2.734670
5662.000000	2.740934
5660.000000	2.748609
5658.000000	2.755863
5656.000000	2.761249
5654.000000	2.764649
5652.000000	2.768664
5650.000000	2.773771
5648.000000	2.780361
5646.000000	2.785581
5644.000000	2.790867
5642.000000	2.796328
5640.000000	2.802127
5638.000000	2.808288
5636.000000	2.814429
5634.000000	2.820323
5632.000000	2.825581
5630.000000	2.830200
5628.000000	2.834190
5626.000000	2.836690
5624.000000	2.840201
5622.000000	2.846307
5620.000000	2.853501
5618.000000	2.859998
5616.000000	2.865411
5614.000000	2.871222
5612.000000	2.877626
5610.000000	2.883134
5608.000000	2.887238
5606.000000	2.892058
5604.000000	2.898082
5602.000000	2.905265
5600.000000	2.910691
5598.000000	2.915550
5596.000000	2.920009
5594.000000	2.924729
5592.000000	2.930169
5590.000000	2.935699
5588.000000	2.941103
5586.000000	2.946901
5584.000000	2.954049
5582.000000	2.960269
5580.000000	2.964970
5578.000000	2.969832
5576.000000	2.974893
5574.000000	2.980627
5572.000000	2.987593
5570.000000	2.994818
5568.000000	3.001026
5566.000000	3.005723
5564.000000	3.010802
5562.000000	3.016657
5560.000000	3.022323
5558.000000	3.028810
5556.000000	3.034647
5554.000000	3.038281
5552.000000	3.042081
5550.000000	3.048199
5548.000000	3.055426
5546.000000	3.062405
5544.000000	3.066724
5542.000000	3.072129
5540.000000	3.079616
5538.000000	3.087406
5536.000000	3.093850
5534.000000	3.096837
5532.000000	3.100243
5530.000000	3.105141
5528.000000	3.110669
5526.000000	3.115581
5524.000000	3.119791
5522.000000	3.126089
5520.000000	3.133883
5518.000000	3.140681
5516.000000	3.145499
5514.000000	3.150071
5512.000000	3.155030
5510.000000	3.159946
5508.000000	3.163488
5506.000000	3.168336
5504.000000	3.175299
5502.000000	3.182110
5500.000000	3.187894
5498.000000	3.192769
5496.000000	3.198820
5494.000000	3.204290
5492.000000	3.209611
5490.000000	3.214523
5488.000000	3.219061
5486.000000	3.225088
5484.000000	3.234255
5482.000000	3.242486
5480.000000	3.246773
5478.000000	3.249207
5476.000000	3.254774
5474.000000	3.263210
5472.000000	3.270763
5470.000000	3.277376
5468.000000	3.282207
5466.000000	3.287069
5464.000000	3.291782
5462.000000	3.298106
5460.000000	3.305825
5458.000000	3.312372
5456.000000	3.318081
5454.000000	3.322916
5452.000000	3.328148
5450.000000	3.333646
5448.000000	3.340026
5446.000000	3.346376
5444.000000	3.351654
5442.000000	3.356682
5440.000000	3.361714
5438.000000	3.367345
5436.000000	3.372754
5434.000000	3.379018
5432.000000	3.385543
5430.000000	3.392212
5428.000000	3.398694
5426.000000	3.405393
5424.000000	3.411955
5422.000000	3.418626
5420.000000	3.424607
5418.000000	3.429264
5416.000000	3.432543
5414.000000	3.436254
5412.000000	3.441807
5410.000000	3.447999
5408.000000	3.454577
5406.000000	3.462249
5404.000000	3.469656
5402.000000	3.474660
5400.000000	3.478296
5398.000000	3.482864
5396.000000	3.488403
5394.000000	3.494716
5392.000000	3.502015
5390.000000	3.509005
5388.000000	3.514892
5386.000000	3.522089
5384.000000	3.529312
5382.000000	3.534653
5380.000000	3.537583
5378.000000	3.541856
5376.000000	3.548328
5374.000000	3.555694
5372.000000	3.562810
5370.000000	3.568780
5368.000000	3.572793
5366.000000	3.577821
5364.000000	3.585696
5362.000000	3.594141
5360.000000	3.600080
5358.000000	3.603567
5356.000000	3.607725
5354.000000	3.614065
5352.000000	3.620595
5350.000000	3.627875
5348.000000	3.633261
5346.000000	3.637906
5344.000000	3.643777
5342.000000	3.650775
5340.000000	3.657333
5338.000000	3.663170
5336.000000	3.669687
5334.000000	3.675306
5332.000000	3.679335
5330.000000	3.683883
5328.000000	3.690570
5326.000000	3.697337
5324.000000	3.703469
5322.000000	3.709857
5320.000000	3.716897
5318.000000	3.724099
5316.000000	3.729208
5314.000000	3.733273
5312.000000	3.737794
5310.000000	3.743822
5308.000000	3.750186
5306.000000	3.756099
5304.000000	3.762483
5302.000000	3.768793
5300.000000	3.774302
5298.000000	3.777888
5296.000000	3.782122
5294.000000	3.788646
5292.000000	3.796297
5290.000000	3.803705
5288.000000	3.811056
5286.000000	3.817790
5284.000000	3.823691
5282.000000	3.828380
5280.000000	3.833664
5278.000000	3.839282
5276.000000	3.844803
5274.000000	3.850076
5272.000000	3.854917
5270.000000	3.859892
5268.000000	3.864947
5266.000000	3.870281
5264.000000	3.876184
5262.000000	3.882445
5260.000000	3.888978
5258.000000	3.894687
5256.000000	3.901092
5254.000000	3.907781
5252.000000	3.912786
5250.000000	3.916115
5248.000000	3.920236
5246.000000	3.926752
5244.000000	3.933900
5242.000000	3.940316
5240.000000	3.945734
5238.000000	3.950655
5236.000000	3.956625
5234.000000	3.962448
5232.000000	3.966121
5230.000000	3.968390
5228.000000	3.972134
5226.000000	3.978196
5224.000000	3.984343
5222.000000	3.990830
5220.000000	3.997475
5218.000000	4.003537
5216.000000	4.009546
5214.000000	4.015474
5212.000000	4.020335
5210.000000	4.022664
5208.000000	4.024948
5206.000000	4.030132
5204.000000	4.037617
5202.000000	4.045687
5200.000000	4.051212
5198.000000	4.055225
5196.000000	4.059892
5194.000000	4.066733
5192.000000	4.072902
5190.000000	4.078220
5188.000000	4.082915
5186.000000	4.088525
5184.000000	4.093301
5182.000000	4.098253
5180.000000	4.103858
5178.000000	4.109512
5176.000000	4.115041
5174.000000	4.120505
5172.000000	4.126180
5170.000000	4.132435
5168.000000	4.137646
5166.000000	4.141763
5164.000000	4.145822
5162.000000	4.151574
5160.000000	4.157551
5158.000000	4.161788
5156.000000	4.166234
5154.000000	4.172768
5152.000000	4.180270
5150.000000	4.186328
5148.000000	4.190334
5146.000000	4.194427
5144.000000	4.199464
5142.000000	4.204984
5140.000000	4.211148
5138.000000	4.216610
5136.000000	4.220936
5134.000000	4.225701
5132.000000	4.231883
5130.000000	4.237696
5128.000000	4.242485
5126.000000	4.247147
5124.000000	4.252634
5122.000000	4.258614
5120.000000	4.265138
5118.000000	4.270846
5116.000000	4.274269
5114.000000	4.277896
5112.000000	4.283204
5110.000000	4.290157
5108.000000	4.295359
5106.000000	4.300092
5104.000000	4.304936
5102.000000	4.310542
5100.000000	4.317017
5098.000000	4.322725
5096.000000	4.327773
5094.000000	4.333605
5092.000000	4.340380
5090.000000	4.346082
5088.000000	4.350588
5086.000000	4.355815
5084.000000	4.362307
5082.000000	4.370490
5080.000000	4.378530
5078.000000	4.384362
5076.000000	4.388430
5074.000000	4.392219
5072.000000	4.396896
5070.000000	4.405156
5068.000000	4.414916
5066.000000	4.421122
5064.000000	4.424725
5062.000000	4.429738
5060.000000	4.436821
5058.000000	4.442922
5056.000000	4.449275
5054.000000	4.456208
5052.000000	4.462134
5050.000000	4.467728
5048.000000	4.473239
5046.000000	4.479150
5044.000000	4.484382
5042.000000	4.489588
5040.000000	4.495031
5038.000000	4.501200
5036.000000	4.509299
5034.000000	4.517355
5032.000000	4.523164
5030.000000	4.527140
5028.000000	4.531877
5026.000000	4.538478
5024.000000	4.544227
5022.000000	4.549048
5020.000000	4.554393
5018.000000	4.561181
5016.000000	4.568586
5014.000000	4.576854
5012.000000	4.584513
5010.000000	4.590924
5008.000000	4.597212
5006.000000	4.603918
5004.000000	4.610140
5002.000000	4.615888
5000.000000	4.622189
4998.000000	4.628586
4996.000000	4.634698
4994.000000	4.640938
4992.000000	4.647222
4990.000000	4.654142
4988.000000	4.661354
4986.000000	4.668341
4984.000000	4.674821
4982.000000	4.681510
4980.000000	4.688632
4978.000000	4.694902
4976.000000	4.700770
4974.000000	4.707589
4972.000000	4.714920
4970.000000	4.722365
4968.000000	4.729330
4966.000000	4.736622
4964.000000	4.743459
4962.000000	4.750721
4960.000000	4.758100
4958.000000	4.765088
4956.000000	4.771079
4954.000000	4.776760
4952.000000	4.783134
4950.000000	4.790537
4948.000000	4.798538
4946.000000	4.806163
4944.000000	4.812802
4942.000000	4.818514
4940.000000	4.823401
4938.000000	4.829009
4936.000000	4.836237
4934.000000	4.844178
4932.000000	4.850691
4930.000000	4.856462
4928.000000	4.862881
4926.000000	4.870357
4924.000000	4.876734
4922.000000	4.882264
4920.000000	4.889875
4918.000000	4.899436
4916.000000	4.908267
4914.000000	4.914716
4912.000000	4.920308
4910.000000	4.927109
4908.000000	4.933801
4906.000000	4.939601
4904.000000	4.946590
4902.000000	4.955672
4900.000000	4.964678
4898.000000	4.973265
4896.000000	4.981660
4894.000000	4.988410
4892.000000	4.993740
4890.000000	4.999605
4888.000000	5.006248
4886.000000	5.012773
4884.000000	5.020482
4882.000000	5.029225
4880.000000	5.037779
4878.000000	5.044872
4876.000000	5.052206
4874.000000	5.059458
4872.000000	5.066104
4870.000000	5.074194
4868.000000	5.083336
4866.000000	5.091610
4864.000000	5.098670
4862.000000	5.106908
4860.000000	5.115026
4858.000000	5.122624
4856.000000	5.129600
4854.000000	5.135966
4852.000000	5.141139
4850.000000	5.146766
4848.000000	5.153968
4846.000000	5.161833
4844.000000	5.169065
4842.000000	5.176957
4840.000000	5.186534
4838.000000	5.196539
4836.000000	5.204135
4834.000000	5.209435
4832.000000	5.214830
4830.000000	5.221659
4828.000000	5.230127
4826.000000	5.239446
4824.000000	5.248377
4822.000000	5.255295
4820.000000	5.260906
4818.000000	5.267604
4816.000000	5.275408
4814.000000	5.283358
4812.000000	5.291578
4810.000000	5.301098
4808.000000	5.311177
4806.000000	5.320439
4804.000000	5.328774
4802.000000	5.337202
4800.000000	5.346198
4798.000000	5.355457
4796.000000	5.363181
4794.000000	5.370202
4792.000000	5.378646
4790.000000	5.388337
4788.000000	5.396804
4786.000000	5.402724
4784.000000	5.408994
4782.000000	5.417247
4780.000000	5.427470
4778.000000	5.437149
4776.000000	5.445690
4774.000000	5.454368
4772.000000	5.462768
4770.000000	5.471010
4768.000000	5.480131
4766.000000	5.490118
4764.000000	5.498375
4762.000000	5.506299
4760.000000	5.514228
4758.000000	5.521442
4756.000000	5.528785
4754.000000	5.537320
4752.000000	5.545264
4750.000000	5.552787
4748.000000	5.560258
4746.000000	5.568353
4744.000000	5.577321
4742.000000	5.586941
4740.000000	5.595653
4738.000000	5.604180
4736.000000	5.611612
4734.000000	5.618912
4732.000000	5.627292
4730.000000	5.637300
4728.000000	5.646920
4726.000000	5.655280
4724.000000	5.663150
4722.000000	5.670548
4720.000000	5.677519
4718.000000	5.685259
4716.000000	5.695337
4714.000000	5.706714
4712.000000	5.715773
4710.000000	5.722818
4708.000000	5.730274
4706.000000	5.738543
4704.000000	5.746662
4702.000000	5.755860
4700.000000	5.765288
4698.000000	5.773420
4696.000000	5.781124
4694.000000	5.790538
4692.000000	5.800641
4690.000000	5.808491
4688.000000	5.814200
4686.000000	5.821172
4684.000000	5.829890
4682.000000	5.839875
4680.000000	5.850292
4678.000000	5.860002
4676.000000	5.868059
4674.000000	5.875347
4672.000000	5.882848
4670.000000	5.890941
4668.000000	5.898773
4666.000000	5.906470
4664.000000	5.914907
4662.000000	5.923350
4660.000000	5.931591
4658.000000	5.940348
4656.000000	5.949733
4654.000000	5.957622
4652.000000	5.965033
4650.000000	5.972619
4648.000000	5.979758
4646.000000	5.985833
4644.000000	5.993119
4642.000000	6.002012
4640.000000	6.011807
4638.000000	6.020326
4636.000000	6.027019
4634.000000	6.033149
4632.000000	6.039759
4630.000000	6.047338
4628.000000	6.056579
4626.000000	6.066658
4624.000000	6.074723
4622.000000	6.081818
4620.000000	6.089414
4618.000000	6.096009
4616.000000	6.102384
4614.000000	6.111292
4612.000000	6.120626
4610.000000	6.128826
4608.000000	6.136861
4606.000000	6.145161
4604.000000	6.153656
4602.000000	6.162047
4600.000000	6.168960
4598.000000	6.176983
4596.000000	6.187476
4594.000000	6.198164
4592.000000	6.206917
4590.000000	6.215645
4588.000000	6.224835
4586.000000	6.232809
4584.000000	6.239277
4582.000000	6.246757
4580.000000	6.255231
4578.000000	6.263343
4576.000000	6.271126
4574.000000	6.279708
4572.000000	6.288455
4570.000000	6.296082
4568.000000	6.302773
4566.000000	6.310936
4564.000000	6.319721
4562.000000	6.327447
4560.000000	6.335080
4558.000000	6.343248
4556.000000	6.351005
4554.000000	6.358247
4552.000000	6.365139
4550.000000	6.372009
4548.000000	6.380813
4546.000000	6.390800
4544.000000	6.400233
4542.000000	6.408251
4540.000000	6.414855
4538.000000	6.421392
4536.000000	6.429876
4534.000000	6.437904
4532.000000	6.444494
4530.000000	6.451400
4528.000000	6.459196
4526.000000	6.466652
4524.000000	6.473671
4522.000000	6.480227
4520.000000	6.487758
4518.000000	6.496209
4516.000000	6.506054
4514.000000	6.515732
4512.000000	6.523469
4510.000000	6.531171
4508.000000	6.540559
4506.000000	6.549455
4504.000000	6.557273
4502.000000	6.564902
4500.000000	6.573086
4498.000000	6.581357
4496.000000	6.589485
4494.000000	6.598011
4492.000000	6.607292
4490.000000	6.616486
4488.000000	6.623413
4486.000000	6.628737
4484.000000	6.636810
4482.000000	6.648395
4480.000000	6.658935
4478.000000	6.666121
4476.000000	6.670684
4474.000000	6.677105
4472.000000	6.685971
4470.000000	6.695046
4468.000000	6.704409
4466.000000	6.713563
4464.000000	6.720446
4462.000000	6.727085
4460.000000	6.733794
4458.000000	6.739609
4456.000000	6.746747
4454.000000	6.755620
4452.000000	6.763522
4450.000000	6.770659
4448.000000	6.778483
4446.000000	6.786222
4444.000000	6.793176
4442.000000	6.800235
4440.000000	6.808030
4438.000000	6.815708
4436.000000	6.822508
4434.000000	6.829643
4432.000000	6.838130
4430.000000	6.846575
4428.000000	6.853609
4426.000000	6.860503
4424.000000	6.867892
4422.000000	6.874767
4420.000000	6.882485
4418.000000	6.892556
4416.000000	6.901958
4414.000000	6.909022
4412.000000	6.915616
4410.000000	6.921875
4408.000000	6.928327
4406.000000	6.936741
4404.000000	6.945270
4402.000000	6.952715
4400.000000	6.960822
4398.000000	6.968820
4396.000000	6.976748
4394.000000	6.984916
4392.000000	6.991918
4390.000000	6.999086
4388.000000	7.008784
4386.000000	7.018145
4384.000000	7.025817
4382.000000	7.032256
4380.000000	7.038264
4378.000000	7.044037
4376.000000	7.050272
4374.000000	7.056958
4372.000000	7.063413
4370.000000	7.069472
4368.000000	7.077241
4366.000000	7.085469
4364.000000	7.092189
4362.000000	7.097792
4360.000000	7.102706
4358.000000	7.107853
4356.000000	7.115313
4354.000000	7.124468
4352.000000	7.133097
4350.000000	7.141042
4348.000000	7.149291
4346.000000	7.158095
4344.000000	7.164875
4342.000000	7.168680
4340.000000	7.173885
4338.000000	7.183453
4336.000000	7.192386
4334.000000	7.198391
4332.000000	7.204961
4330.000000	7.212186
4328.000000	7.218325
4326.000000	7.225107
4324.000000	7.232296
4322.000000	7.239253
4320.000000	7.247214
4318.000000	7.256717
4316.000000	7.266353
4314.000000	7.274293
4312.000000	7.280860
4310.000000	7.288350
4308.000000	7.295297
4306.000000	7.301268
4304.000000	7.309027
4302.000000	7.318090
4300.000000	7.325367
4298.000000	7.331503
4296.000000	7.339692
4294.000000	7.350467
4292.000000	7.359812
4290.000000	7.365407
4288.000000	7.369789
4286.000000	7.375655
4284.000000	7.382340
4282.000000	7.389151
4280.000000	7.397106
4278.000000	7.405985
4276.000000	7.413574
4274.000000	7.419612
4272.000000	7.424654
4270.000000	7.429360
4268.000000	7.435567
4266.000000	7.443348
4264.000000	7.450743
4262.000000	7.457988
4260.000000	7.465269
4258.000000	7.472352
4256.000000	7.479097
4254.000000	7.484993
4252.000000	7.491518
4250.000000	7.499167
4248.000000	7.506455
4246.000000	7.514455
4244.000000	7.523113
4242.000000	7.530273
4240.000000	7.536973
4238.000000	7.544412
4236.000000	7.552197
4234.000000	7.559707
4232.000000	7.567703
4230.000000	7.576904
4228.000000	7.584681
4226.000000	7.590187
4224.000000	7.597225
4222.000000	7.605784
4220.000000	7.613656
4218.000000	7.620909
4216.000000	7.628151
4214.000000	7.636095
4212.000000	7.643767
4210.000000	7.650521
4208.000000	7.657422
4206.000000	7.666396
4204.000000	7.677001
4202.000000	7.685826
4200.000000	7.692498
4198.000000	7.699788
4196.000000	7.708163
4194.000000	7.717567
4192.000000	7.726272
4190.000000	7.734299
4188.000000	7.742587
4186.000000	7.750841
4184.000000	7.758196
4182.000000	7.765023
4180.000000	7.772732
4178.000000	7.780778
4176.000000	7.788584
4174.000000	7.798701
4172.000000	7.807635
4170.000000	7.814224
4168.000000	7.821989
4166.000000	7.830522
4164.000000	7.838675
4162.000000	7.846421
4160.000000	7.853880
4158.000000	7.862199
4156.000000	7.870106
4154.000000	7.877260
4152.000000	7.884205
4150.000000	7.891409
4148.000000	7.899815
4146.000000	7.908513
4144.000000	7.915993
4142.000000	7.923074
4140.000000	7.931029
4138.000000	7.939488
4136.000000	7.947192
4134.000000	7.954837
4132.000000	7.963321
4130.000000	7.971490
4128.000000	7.979259
4126.000000	7.987586
4124.000000	7.995296
4122.000000	8.002565
4120.000000	8.010913
4118.000000	8.019894
4116.000000	8.029107
4114.000000	8.038605
4112.000000	8.047391
4110.000000	8.056001
4108.000000	8.063980
4106.000000	8.070924
4104.000000	8.079467
4102.000000	8.089509
4100.000000	8.098155
4098.000000	8.105086
4096.000000	8.111179
4094.000000	8.117807
4092.000000	8.126543
4090.000000	8.136133
4088.000000	8.144549
4086.000000	8.152914
4084.000000	8.161922
4082.000000	8.170791
4080.000000	8.178641
4078.000000	8.185383
4076.000000	8.192448
4074.000000	8.200765
4072.000000	8.210741
4070.000000	8.220541
4068.000000	8.227828
4066.000000	8.234901
4064.000000	8.243112
4062.000000	8.250954
4060.000000	8.258380
4058.000000	8.265592
4056.000000	8.272796
4054.000000	8.280805
4052.000000	8.289777
4050.000000	8.298278
4048.000000	8.306112
4046.000000	8.315517
4044.000000	8.325452
4042.000000	8.333888
4040.000000	8.341813
4038.000000	8.349587
4036.000000	8.357959
4034.000000	8.366135
4032.000000	8.373496
4030.000000	8.381459
4028.000000	8.390325
4026.000000	8.400730
4024.000000	8.411409
4022.000000	8.419528
4020.000000	8.426132
4018.000000	8.434131
4016.000000	8.443642
4014.000000	8.453363
4012.000000	8.462658
4010.000000	8.471444
4008.000000	8.481034
4006.000000	8.491281
4004.000000	8.500479
4002.000000	8.507794
4000.000000	8.514485
3998.000000	8.521996
3996.000000	8.530136
3994.000000	8.539574
3992.000000	8.549065
3990.000000	8.557337
3988.000000	8.566963
3986.000000	8.576142
3984.000000	8.582692
3982.000000	8.589949
3980.000000	8.598579
3978.000000	8.606144
3976.000000	8.612890
3974.000000	8.621410
3972.000000	8.631184
3970.000000	8.640425
3968.000000	8.649774
3966.000000	8.658498
3964.000000	8.666031
3962.000000	8.674303
3960.000000	8.683380
3958.000000	8.691481
3956.000000	8.698981
3954.000000	8.706987
3952.000000	8.713976
3950.000000	8.720911
3948.000000	8.730506
3946.000000	8.739219
3944.000000	8.745332
3942.000000	8.754339
3940.000000	8.767586
3938.000000	8.780517
3936.000000	8.787835
3934.000000	8.790965
3932.000000	8.798051
3930.000000	8.811054
3928.000000	8.822642
3926.000000	8.830186
3924.000000	8.838636
3922.000000	8.847214
3920.000000	8.852155
3918.000000	8.859487
3916.000000	8.877343
3914.000000	8.898309
3912.000000	8.911664
3910.000000	8.918352
3908.000000	8.916359
3906.000000	8.904882
3904.000000	8.898536
3902.000000	8.906565
3900.000000	8.927517
3898.000000	8.957061
3896.000000	8.977735
3894.000000	8.976609
3892.000000	8.973980
3890.000000	8.985447
3888.000000	8.989735
3886.000000	8.992387
3884.000000	9.010302
3882.000000	9.025599
3880.000000	9.040841
3878.000000	9.058554
3876.000000	9.064072
3874.000000	9.058606
3872.000000	9.044611
3870.000000	9.046224
3868.000000	9.070580
3866.000000	9.086970
3864.000000	9.099731
3862.000000	9.122033
3860.000000	9.139555
3858.000000	9.119638
3856.000000	9.051282
3854.000000	9.016640
3852.000000	9.077172
3850.000000	9.163193
3848.000000	9.204825
3846.000000	9.211228
3844.000000	9.208608
3842.000000	9.197281
3840.000000	9.171499
3838.000000	9.167703
3836.000000	9.204752
3834.000000	9.242203
3832.000000	9.263755
3830.000000	9.283112
3828.000000	9.298426
3826.000000	9.304449
3824.000000	9.290633
3822.000000	9.275794
3820.000000	9.284364
3818.000000	9.287467
3816.000000	9.300793
3814.000000	9.348860
3812.000000	9.383181
3810.000000	9.377500
3808.000000	9.362238
3806.000000	9.367866
3804.000000	9.364921
3802.000000	9.358006
3800.000000	9.388858
3798.000000	9.426371
3796.000000	9.449148
3794.000000	9.470042
3792.000000	9.485267
3790.000000	9.494649
3788.000000	9.500777
3786.000000	9.506461
3784.000000	9.513383
3782.000000	9.516042
3780.000000	9.518902
3778.000000	9.532251
3776.000000	9.548407
3774.000000	9.555002
3772.000000	9.550443
3770.000000	9.549601
3768.000000	9.560263
3766.000000	9.574950
3764.000000	9.587916
3762.000000	9.591221
3760.000000	9.591016
3758.000000	9.599858
3756.000000	9.594990
3754.000000	9.552553
3752.000000	9.512777
3750.000000	9.523622
3748.000000	9.543704
3746.000000	9.528020
3744.000000	9.550235
3742.000000	9.622168
3740.000000	9.651645
3738.000000	9.633703
3736.000000	9.623791
3734.000000	9.637661
3732.000000	9.666263
3730.000000	9.697212
3728.000000	9.709467
3726.000000	9.713400
3724.000000	9.721711
3722.000000	9.731767
3720.000000	9.745146
3718.000000	9.756139
3716.000000	9.749854
3714.000000	9.722595
3712.000000	9.709081
3710.000000	9.731853
3708.000000	9.764289
3706.000000	9.780383
3704.000000	9.778924
3702.000000	9.778218
3700.000000	9.788749
3698.000000	9.797466
3696.000000	9.796419
3694.000000	9.782921
3692.000000	9.749536
3690.000000	9.715447
3688.000000	9.729425
3686.000000	9.779235
3684.000000	9.806429
3682.000000	9.802193
3680.000000	9.776296
3678.000000	9.725933
3676.000000	9.694103
3674.000000	9.705460
3672.000000	9.707250
3670.000000	9.713056
3668.000000	9.747575
3666.000000	9.772295
3664.000000	9.775329
3662.000000	9.767069
3660.000000	9.747656
3658.000000	9.719306
3656.000000	9.704277
3654.000000	9.694349
3652.000000	9.653154
3650.000000	9.612711
3648.000000	9.622638
3646.000000	9.657501
3644.000000	9.672729
3642.000000	9.665577
3640.000000	9.651417
3638.000000	9.637168
3636.000000	9.620067
3634.000000	9.595283
3632.000000	9.548750
3630.000000	9.500084
3628.000000	9.502798
3626.000000	9.531413
3624.000000	9.530688
3622.000000	9.498429
3620.000000	9.465434
3618.000000	9.456190
3616.000000	9.450634
3614.000000	9.431447
3612.000000	9.408352
3610.000000	9.387588
3608.000000	9.380985
3606.000000	9.385304
3604.000000	9.378660
3602.000000	9.360250
3600.000000	9.341757
3598.000000	9.323946
3596.000000	9.306430
3594.000000	9.294422
3592.000000	9.279101
3590.000000	9.249414
3588.000000	9.225343
3586.000000	9.225240
3584.000000	9.229869
3582.000000	9.223483
3580.000000	9.211333
3578.000000	9.199528
3576.000000	9.189937
3574.000000	9.181116
3572.000000	9.166721
3570.000000	9.142262
3568.000000	9.121979
3566.000000	9.120079
3564.000000	9.125793
3562.000000	9.125654
3560.000000	9.121466
3558.000000	9.115753
3556.000000	9.106556
3554.000000	9.097413
3552.000000	9.090409
3550.000000	9.082543
3548.000000	9.073346
3546.000000	9.066817
3544.000000	9.064830
3542.000000	9.062390
3540.000000	9.056783
3538.000000	9.051476
3536.000000	9.047976
3534.000000	9.043721
3532.000000	9.035650
3530.000000	9.024788
3528.000000	9.016564
3526.000000	9.010763
3524.000000	9.004056
3522.000000	8.997730
3520.000000	8.991386
3518.000000	8.984921
3516.000000	8.978202
3514.000000	8.969968
3512.000000	8.959684
3510.000000	8.949199
3508.000000	8.940298
3506.000000	8.928742
3504.000000	8.914802
3502.000000	8.905905
3500.000000	8.898400
3498.000000	8.886713
3496.000000	8.874224
3494.000000	8.863361
3492.000000	8.851784
3490.000000	8.838127
3488.000000	8.825760
3486.000000	8.816023
3484.000000	8.805696
3482.000000	8.795499
3480.000000	8.789098
3478.000000	8.783382
3476.000000	8.775905
3474.000000	8.769955
3472.000000	8.766792
3470.000000	8.764467
3468.000000	8.760083
3466.000000	8.755122
3464.000000	8.751780
3462.000000	8.751128
3460.000000	8.751469
3458.000000	8.750259
3456.000000	8.747991
3454.000000	8.745675
3452.000000	8.742932
3450.000000	8.739170
3448.000000	8.734788
3446.000000	8.732967
3444.000000	8.734027
3442.000000	8.736300
3440.000000	8.740486
3438.000000	8.747016
3436.000000	8.754007
3434.000000	8.762298
3432.000000	8.773008
3430.000000	8.787226
3428.000000	8.801665
3426.000000	8.811770
3424.000000	8.820803
3422.000000	8.829782
3420.000000	8.838017
3418.000000	8.846082
3416.000000	8.853150
3414.000000	8.859256
3412.000000	8.864488
3410.000000	8.869466
3408.000000	8.874103
3406.000000	8.877750
3404.000000	8.881686
3402.000000	8.887848
3400.000000	8.893924
3398.000000	8.897354
3396.000000	8.901387
3394.000000	8.907356
3392.000000	8.912608
3390.000000	8.917618
3388.000000	8.923481
3386.000000	8.929990
3384.000000	8.936450
3382.000000	8.941996
3380.000000	8.947279
3378.000000	8.952267
3376.000000	8.957600
3374.000000	8.960888
3372.000000	8.961129
3370.000000	8.962650
3368.000000	8.967501
3366.000000	8.972307
3364.000000	8.976086
3362.000000	8.980083
3360.000000	8.984046
3358.000000	8.988219
3356.000000	8.992790
3354.000000	8.996681
3352.000000	9.000561
3350.000000	9.004963
3348.000000	9.007909
3346.000000	9.010253
3344.000000	9.014396
3342.000000	9.019361
3340.000000	9.022656
3338.000000	9.024843
3336.000000	9.027991
3334.000000	9.032826
3332.000000	9.037993
3330.000000	9.043093
3328.000000	9.046318
3326.000000	9.048617
3324.000000	9.052252
3322.000000	9.056743
3320.000000	9.059908
3318.000000	9.060834
3316.000000	9.062490
3314.000000	9.065732
3312.000000	9.067966
3310.000000	9.068473
3308.000000	9.070196
3306.000000	9.073885
3304.000000	9.077828
3302.000000	9.081228
3300.000000	9.083980
3298.000000	9.087590
3296.000000	9.090024
3294.000000	9.091364
3292.000000	9.094390
3290.000000	9.098850
3288.000000	9.103249
3286.000000	9.107055
3284.000000	9.109801
3282.000000	9.112442
3280.000000	9.115834
3278.000000	9.118086
3276.000000	9.118545
3274.000000	9.120044
3272.000000	9.122999
3270.000000	9.126367
3268.000000	9.130974
3266.000000	9.136417
3264.000000	9.140250
3262.000000	9.143288
3260.000000	9.145947
3258.000000	9.147246
3256.000000	9.150784
3254.000000	9.158596
3252.000000	9.164964
3250.000000	9.166910
3248.000000	9.169192
3246.000000	9.174206
3244.000000	9.179427
3242.000000	9.183264
3240.000000	9.186380
3238.000000	9.191283
3236.000000	9.197441
3234.000000	9.200965
3232.000000	9.204863
3230.000000	9.211225
3228.000000	9.216284
3226.000000	9.219947
3224.000000	9.223334
3222.000000	9.227238
3220.000000	9.230948
3218.000000	9.234692
3216.000000	9.240008
3214.000000	9.245257
3212.000000	9.249998
3210.000000	9.255065
3208.000000	9.260563
3206.000000	9.267841
3204.000000	9.274876
3202.000000	9.281137
3200.000000	9.287807
3198.000000	9.294608
3196.000000	9.301798
3194.000000	9.307887
3192.000000	9.314180
3190.000000	9.322279
3188.000000	9.330758
3186.000000	9.338942
3184.000000	9.346668
3182.000000	9.353163
3180.000000	9.358580
3178.000000	9.365220
3176.000000	9.373804
3174.000000	9.382731
3172.000000	9.390287
3170.000000	9.397129
3168.000000	9.403936
3166.000000	9.410467
3164.000000	9.417691
3162.000000	9.426415
3160.000000	9.434517
3158.000000	9.441994
3156.000000	9.449929
3154.000000	9.457376
3152.000000	9.463210
3150.000000	9.470278
3148.000000	9.479126
3146.000000	9.485630
3144.000000	9.492452
3142.000000	9.500902
3140.000000	9.508953
3138.000000	9.515982
3136.000000	9.522422
3134.000000	9.529003
3132.000000	9.536991
3130.000000	9.544565
3128.000000	9.550098
3126.000000	9.555052
3124.000000	9.560525
3122.000000	9.566197
3120.000000	9.571883
3118.000000	9.576564
3116.000000	9.581452
3114.000000	9.587999
3112.000000	9.593236
3110.000000	9.596944
3108.000000	9.600801
3106.000000	9.606226
3104.000000	9.613490
3102.000000	9.619570
3100.000000	9.624265
3098.000000	9.630808
3096.000000	9.639126
3094.000000	9.647164
3092.000000	9.653699
3090.000000	9.657979
3088.000000	9.661248
3086.000000	9.666334
3084.000000	9.671451
3082.000000	9.675128
3080.000000	9.678537
3078.000000	9.680701
3076.000000	9.683471
3074.000000	9.687205
3072.000000	9.690704
3070.000000	9.693370
3068.000000	9.694614
3066.000000	9.696200
3064.000000	9.699697
3062.000000	9.704777
3060.000000	9.710574
3058.000000	9.715354
3056.000000	9.721385
3054.000000	9.728138
3052.000000	9.734437
3050.000000	9.739847
3048.000000	9.745536
3046.000000	9.750571
3044.000000	9.753683
3042.000000	9.756927
3040.000000	9.760233
3038.000000	9.762252
3036.000000	9.763189
3034.000000	9.762781
3032.000000	9.761196
3030.000000	9.758828
3028.000000	9.752312
3026.000000	9.740582
3024.000000	9.726775
3022.000000	9.714599
3020.000000	9.709899
3018.000000	9.716762
3016.000000	9.734251
3014.000000	9.759640
3012.000000	9.790380
3010.000000	9.820980
3008.000000	9.846234
3006.000000	9.862924
3004.000000	9.874873
3002.000000	9.884426
3000.000000	9.892115
2998.000000	9.898178
2996.000000	9.902798
2994.000000	9.907083
2992.000000	9.909445
2990.000000	9.910409
2988.000000	9.909728
2986.000000	9.905559
2984.000000	9.898455
2982.000000	9.890773
2980.000000	9.879904
2978.000000	9.861322
2976.000000	9.835515
2974.000000	9.802107
2972.000000	9.757490
2970.000000	9.702943
2968.000000	9.643908
2966.000000	9.590275
2964.000000	9.554137
2962.000000	9.541446
2960.000000	9.550833
2958.000000	9.574970
2956.000000	9.603875
2954.000000	9.630056
2952.000000	9.650869
2950.000000	9.661913
2948.000000	9.659826
2946.000000	9.644081
2944.000000	9.614213
2942.000000	9.571615
2940.000000	9.521900
2938.000000	9.471056
2936.000000	9.423702
2934.000000	9.379878
2932.000000	9.338152
2930.000000	9.300581
2928.000000	9.271217
2926.000000	9.258169
2924.000000	9.276449
2922.000000	9.329832
2920.000000	9.409114
2918.000000	9.502457
2916.000000	9.597163
2914.000000	9.684361
2912.000000	9.757854
2910.000000	9.814829
2908.000000	9.861317
2906.000000	9.901954
2904.000000	9.938512
2902.000000	9.971152
2900.000000	9.999969
2898.000000	10.026909
2896.000000	10.054164
2894.000000	10.082876
2892.000000	10.111272
2890.000000	10.136333
2888.000000	10.154989
2886.000000	10.168847
2884.000000	10.180160
2882.000000	10.188598
2880.000000	10.191873
2878.000000	10.188016
2876.000000	10.179023
2874.000000	10.163335
2872.000000	10.137411
2870.000000	10.098623
2868.000000	10.046077
2866.000000	9.986054
2864.000000	9.933193
2862.000000	9.901837
2860.000000	9.899210
2858.000000	9.922034
2856.000000	9.958842
2854.000000	10.001698
2852.000000	10.050569
2850.000000	10.108589
2848.000000	10.177328
2846.000000	10.247864
2844.000000	10.308201
2842.000000	10.354394
2840.000000	10.391990
2838.000000	10.423078
2836.000000	10.447637
2834.000000	10.468908
2832.000000	10.487695
2830.000000	10.504242
2828.000000	10.519796
2826.000000	10.533108
2824.000000	10.544415
2822.000000	10.556854
2820.000000	10.569434
2818.000000	10.580585
2816.000000	10.590209
2814.000000	10.597350
2812.000000	10.604289
2810.000000	10.611636
2808.000000	10.619331
2806.000000	10.625638
2804.000000	10.629621
2802.000000	10.635045
2800.000000	10.642644
2798.000000	10.650315
2796.000000	10.657201
2794.000000	10.663201
2792.000000	10.669317
2790.000000	10.676574
2788.000000	10.685825
2786.000000	10.697108
2784.000000	10.708309
2782.000000	10.716500
2780.000000	10.722947
2778.000000	10.730223
2776.000000	10.738360
2774.000000	10.746763
2772.000000	10.754042
2770.000000	10.759913
2768.000000	10.766017
2766.000000	10.771743
2764.000000	10.776965
2762.000000	10.782682
2760.000000	10.789412
2758.000000	10.795913
2756.000000	10.800103
2754.000000	10.802664
2752.000000	10.806873
2750.000000	10.811832
2748.000000	10.816927
2746.000000	10.821286
2744.000000	10.824554
2742.000000	10.828135
2740.000000	10.832781
2738.000000	10.836820
2736.000000	10.839607
2734.000000	10.841945
2732.000000	10.845265
2730.000000	10.850094
2728.000000	10.854183
2726.000000	10.857845
2724.000000	10.860843
2722.000000	10.864623
2720.000000	10.867549
2718.000000	10.869319
2716.000000	10.870534
2714.000000	10.872187
2712.000000	10.875802
2710.000000	10.878451
2708.000000	10.880558
2706.000000	10.881929
2704.000000	10.883688
2702.000000	10.887720
2700.000000	10.892093
2698.000000	10.895545
2696.000000	10.898238
2694.000000	10.901425
2692.000000	10.904404
2690.000000	10.906797
2688.000000	10.910331
2686.000000	10.913008
2684.000000	10.915129
2682.000000	10.918442
2680.000000	10.921071
2678.000000	10.921765
2676.000000	10.922905
2674.000000	10.923368
2672.000000	10.923986
2670.000000	10.926533
2668.000000	10.927893
2666.000000	10.927407
2664.000000	10.928964
2662.000000	10.932820
2660.000000	10.935509
2658.000000	10.936181
2656.000000	10.936554
2654.000000	10.938125
2652.000000	10.939016
2650.000000	10.939073
2648.000000	10.942122
2646.000000	10.944775
2644.000000	10.946370
2642.000000	10.948402
2640.000000	10.950964
2638.000000	10.951120
2636.000000	10.949590
2634.000000	10.951717
2632.000000	10.955065
2630.000000	10.955671
2628.000000	10.954515
2626.000000	10.954299
2624.000000	10.955527
2622.000000	10.956228
2620.000000	10.956762
2618.000000	10.958845
2616.000000	10.958590
2614.000000	10.956860
2612.000000	10.957184
2610.000000	10.957113
2608.000000	10.956292
2606.000000	10.956695
2604.000000	10.955860
2602.000000	10.952963
2600.000000	10.951192
2598.000000	10.951856
2596.000000	10.951341
2594.000000	10.950159
2592.000000	10.950436
2590.000000	10.952804
2588.000000	10.955605
2586.000000	10.957963
2584.000000	10.961381
2582.000000	10.966775
2580.000000	10.971689
2578.000000	10.974282
2576.000000	10.977340
2574.000000	10.981518
2572.000000	10.985258
2570.000000	10.987169
2568.000000	10.990858
2566.000000	10.993472
2564.000000	10.992536
2562.000000	10.992121
2560.000000	10.991635
2558.000000	10.992694
2556.000000	10.994414
2554.000000	10.993862
2552.000000	10.994609
2550.000000	10.995469
2548.000000	10.996012
2546.000000	10.997974
2544.000000	10.999887
2542.000000	10.999242
2540.000000	10.998245
2538.000000	10.998273
2536.000000	11.000153
2534.000000	11.002239
2532.000000	11.003232
2530.000000	11.005044
2528.000000	11.004557
2526.000000	11.003055
2524.000000	11.004482
2522.000000	11.006041
2520.000000	11.005867
2518.000000	11.005003
2516.000000	11.005024
2514.000000	11.007005
2512.000000	11.008424
2510.000000	11.007623
2508.000000	11.006721
2506.000000	11.005308
2504.000000	11.004363
2502.000000	11.003388
2500.000000	11.002566
2498.000000	11.003213
2496.000000	11.004534
2494.000000	11.005131
2492.000000	11.004263
2490.000000	11.003299
2488.000000	11.003392
2486.000000	11.002426
2484.000000	11.001452
2482.000000	11.000044
2480.000000	10.999001
2478.000000	10.998177
2476.000000	10.998153
2474.000000	10.997734
2472.000000	10.995793
2470.000000	10.993087
2468.000000	10.990583
2466.000000	10.988633
2464.000000	10.985362
2462.000000	10.981291
2460.000000	10.978827
2458.000000	10.976119
2456.000000	10.971973
2454.000000	10.969624
2452.000000	10.969095
2450.000000	10.967565
2448.000000	10.966283
2446.000000	10.965504
2444.000000	10.964413
2442.000000	10.964452
2440.000000	10.963982
2438.000000	10.962994
2436.000000	10.961332
2434.000000	10.959245
2432.000000	10.959506
2430.000000	10.959044
2428.000000	10.956989
2426.000000	10.957368
2424.000000	10.959529
2422.000000	10.960905
2420.000000	10.960719
2418.000000	10.961739
2416.000000	10.964982
2414.000000	10.967855
2412.000000	10.971144
2410.000000	10.976202
2408.000000	10.981667
2406.000000	10.984248
2404.000000	10.985235
2402.000000	10.989788
2400.000000	10.996157
2398.000000	11.001146
2396.000000	11.005114
2394.000000	11.008233
2392.000000	11.010745
2390.000000	11.011907
2388.000000	11.013073
2386.000000	11.014015
2384.000000	11.014780
2382.000000	11.012459
2380.000000	11.007329
2378.000000	10.997159
2376.000000	10.982096
2374.000000	10.962897
2372.000000	10.943252
2370.000000	10.922350
2368.000000	10.899169
2366.000000	10.879795
2364.000000	10.868586
2362.000000	10.864121
2360.000000	10.868812
2358.000000	10.883338
2356.000000	10.905033
2354.000000	10.932595
2352.000000	10.961357
2350.000000	10.979922
2348.000000	10.973455
2346.000000	10.947306
2344.000000	10.917890
2342.000000	10.891636
2340.000000	10.875226
2338.000000	10.874362
2336.000000	10.883506
2334.000000	10.891652
2332.000000	10.897253
2330.000000	10.905072
2328.000000	10.914988
2326.000000	10.924379
2324.000000	10.931999
2322.000000	10.940597
2320.000000	10.950724
2318.000000	10.957981
2316.000000	10.962233
2314.000000	10.967297
2312.000000	10.972599
2310.000000	10.976146
2308.000000	10.978725
2306.000000	10.981721
2304.000000	10.983006
2302.000000	10.982384
2300.000000	10.983891
2298.000000	10.985505
2296.000000	10.985341
2294.000000	10.984647
2292.000000	10.984147
2290.000000	10.983768
2288.000000	10.984355
2286.000000	10.983413
2284.000000	10.982659
2282.000000	10.982376
2280.000000	10.980653
2278.000000	10.976527
2276.000000	10.973302
2274.000000	10.972137
2272.000000	10.971864
2270.000000	10.969453
2268.000000	10.965940
2266.000000	10.963243
2264.000000	10.961915
2262.000000	10.962030
2260.000000	10.960567
2258.000000	10.957872
2256.000000	10.956017
2254.000000	10.954656
2252.000000	10.954490
2250.000000	10.954686
2248.000000	10.955586
2246.000000	10.956237
2244.000000	10.956253
2242.000000	10.957418
2240.000000	10.957719
2238.000000	10.957475
2236.000000	10.958239
2234.000000	10.960180
2232.000000	10.963241
2230.000000	10.964638
2228.000000	10.964944
2226.000000	10.966316
2224.000000	10.968247
2222.000000	10.968937
2220.000000	10.968647
2218.000000	10.969142
2216.000000	10.968670
2214.000000	10.969600
2212.000000	10.970482
2210.000000	10.968017
2208.000000	10.967682
2206.000000	10.971549
2204.000000	10.975169
2202.000000	10.977265
2200.000000	10.978113
2198.000000	10.978352
2196.000000	10.979715
2194.000000	10.980679
2192.000000	10.980918
2190.000000	10.980645
2188.000000	10.982028
2186.000000	10.983172
2184.000000	10.984005
2182.000000	10.985869
2180.000000	10.988163
2178.000000	10.988603
2176.000000	10.989139
2174.000000	10.989000
2172.000000	10.987554
2170.000000	10.986841
2168.000000	10.989632
2166.000000	10.992919
2164.000000	10.996103
2162.000000	10.999814
2160.000000	11.001443
2158.000000	11.001346
2156.000000	11.001805
2154.000000	11.004007
2152.000000	11.008022
2150.000000	11.009247
2148.000000	11.010559
2146.000000	11.013163
2144.000000	11.015046
2142.000000	11.016129
2140.000000	11.017994
2138.000000	11.020893
2136.000000	11.023514
2134.000000	11.024743
2132.000000	11.026736
2130.000000	11.030533
2128.000000	11.035157
2126.000000	11.038183
2124.000000	11.039695
2122.000000	11.041848
2120.000000	11.045269
2118.000000	11.048663
2116.000000	11.052180
2114.000000	11.055142
2112.000000	11.058435
2110.000000	11.061663
2108.000000	11.065170
2106.000000	11.068774
2104.000000	11.072505
2102.000000	11.078392
2100.000000	11.084501
2098.000000	11.089614
2096.000000	11.093890
2094.000000	11.097691
2092.000000	11.102663
2090.000000	11.106619
2088.000000	11.110684
2086.000000	11.115509
2084.000000	11.119571
2082.000000	11.122424
2080.000000	11.128227
2078.000000	11.134128
2076.000000	11.139375
2074.000000	11.144023
2072.000000	11.149339
2070.000000	11.155406
2068.000000	11.159916
2066.000000	11.165074
2064.000000	11.171397
2062.000000	11.177372
2060.000000	11.182363
2058.000000	11.186533
2056.000000	11.191811
2054.000000	11.197394
2052.000000	11.203618
2050.000000	11.209045
2048.000000	11.214245
2046.000000	11.219185
2044.000000	11.223686
2042.000000	11.226769
2040.000000	11.229932
2038.000000	11.236203
2036.000000	11.242199
2034.000000	11.246883
2032.000000	11.251080
2030.000000	11.251707
2028.000000	11.256268
2026.000000	11.263798
2024.000000	11.268961
2022.000000	11.272509
2020.000000	11.275115
2018.000000	11.277063
2016.000000	11.282426
2014.000000	11.288915
2012.000000	11.294238
2010.000000	11.298692
2008.000000	11.302092
2006.000000	11.304832
2004.000000	11.306448
2002.000000	11.309141
2000.000000	11.313345
1998.000000	11.316767
1996.000000	11.319726
1994.000000	11.318206
1992.000000	11.317303
1990.000000	11.322547
1988.000000	11.327386
1986.000000	11.329370
1984.000000	11.330425
1982.000000	11.330658
1980.000000	11.330969
1978.000000	11.329727
1976.000000	11.328074
1974.000000	11.328198
1972.000000	11.328513
1970.000000	11.325710
1968.000000	11.321455
1966.000000	11.320064
1964.000000	11.317986
1962.000000	11.310520
1960.000000	11.299165
1958.000000	11.299259
1956.000000	11.308400
1954.000000	11.311197
1952.000000	11.307773
1950.000000	11.302947
1948.000000	11.300949
1946.000000	11.297164
1944.000000	11.289689
1942.000000	11.286082
1940.000000	11.290056
1938.000000	11.289668
1936.000000	11.287093
1934.000000	11.283465
1932.000000	11.279531
1930.000000	11.275175
1928.000000	11.270724
1926.000000	11.263752
1924.000000	11.255479
1922.000000	11.249392
1920.000000	11.237508
1918.000000	11.226622
1916.000000	11.233716
1914.000000	11.234643
1912.000000	11.225458
1910.000000	11.213782
1908.000000	11.204710
1906.000000	11.199364
1904.000000	11.194556
1902.000000	11.189156
1900.000000	11.183782
1898.000000	11.174887
1896.000000	11.164100
1894.000000	11.156366
1892.000000	11.149262
1890.000000	11.141155
1888.000000	11.143894
1886.000000	11.144613
1884.000000	11.142714
1882.000000	11.139743
1880.000000	11.135478
1878.000000	11.129633
1876.000000	11.125774
1874.000000	11.121246
1872.000000	11.106528
1870.000000	11.080875
1868.000000	11.077120
1866.000000	11.088939
1864.000000	11.093256
1862.000000	11.089577
1860.000000	11.083149
1858.000000	11.076190
1856.000000	11.073015
1854.000000	11.068143
1852.000000	11.061647
1850.000000	11.051893
1848.000000	11.036639
1846.000000	11.002468
1844.000000	10.984398
1842.000000	11.005853
1840.000000	11.013183
1838.000000	11.004351
1836.000000	10.998658
1834.000000	10.989828
1832.000000	10.965656
1830.000000	10.942881
1828.000000	10.942270
1826.000000	10.934724
1824.000000	10.931307
1822.000000	10.931366
1820.000000	10.922773
1818.000000	10.910097
1816.000000	10.900812
1814.000000	10.889261
1812.000000	10.870634
1810.000000	10.856380
1808.000000	10.849727
1806.000000	10.839414
1804.000000	10.820254
1802.000000	10.792221
1800.000000	10.775765
1798.000000	10.770434
1796.000000	10.753618
1794.000000	10.708551
1792.000000	10.684718
1790.000000	10.701039
1788.000000	10.701701
1786.000000	10.676895
1784.000000	10.661117
1782.000000	10.648919
1780.000000	10.634110
1778.000000	10.621084
1776.000000	10.592757
1774.000000	10.532231
1772.000000	10.503083
1770.000000	10.521548
1768.000000	10.528004
1766.000000	10.533629
1764.000000	10.511018
1762.000000	10.477993
1760.000000	10.474033
1758.000000	10.460467
1756.000000	10.441492
1754.000000	10.414143
1752.000000	10.359694
1750.000000	10.340134
1748.000000	10.343059
1746.000000	10.334958
1744.000000	10.313533
1742.000000	10.279032
1740.000000	10.249735
1738.000000	10.241820
1736.000000	10.173364
1734.000000	10.113669
1732.000000	10.167290
1730.000000	10.209709
1728.000000	10.216871
1726.000000	10.210765
1724.000000	10.197395
1722.000000	10.180619
1720.000000	10.119917
1718.000000	10.041971
1716.000000	10.056490
1714.000000	10.107009
1712.000000	10.127889
1710.000000	10.115253
1708.000000	10.085983
1706.000000	10.055342
1704.000000	10.036693
1702.000000	9.957180
1700.000000	9.908029
1698.000000	9.922584
1696.000000	9.913535
1694.000000	9.984405
1692.000000	10.034345
1690.000000	10.023200
1688.000000	9.985122
1686.000000	9.881151
1684.000000	9.853321
1682.000000	9.940543
1680.000000	9.979531
1678.000000	9.960243
1676.000000	9.916685
1674.000000	9.917282
1672.000000	9.913230
1670.000000	9.882866
1668.000000	9.895559
1666.000000	9.910054
1664.000000	9.882844
1662.000000	9.871129
1660.000000	9.882718
1658.000000	9.869130
1656.000000	9.775840
1654.000000	9.621330
1652.000000	9.643586
1650.000000	9.754171
1648.000000	9.733390
1646.000000	9.711106
1644.000000	9.750240
1642.000000	9.765987
1640.000000	9.744158
1638.000000	9.680910
1636.000000	9.612337
1634.000000	9.639249
1632.000000	9.675698
1630.000000	9.654246
1628.000000	9.618848
1626.000000	9.579111
1624.000000	9.523556
1622.000000	9.486829
1620.000000	9.441556
1618.000000	9.346918
1616.000000	9.301968
1614.000000	9.303935
1612.000000	9.251136
1610.000000	9.184617
1608.000000	9.152321
1606.000000	9.158735
1604.000000	9.180036
1602.000000	9.203591
1600.000000	9.227352
1598.000000	9.249292
1596.000000	9.264152
1594.000000	9.277324
1592.000000	9.283871
1590.000000	9.281145
1588.000000	9.274390
1586.000000	9.267792
1584.000000	9.261379
1582.000000	9.254780
1580.000000	9.238564
1578.000000	9.175173
1576.000000	9.137148
1574.000000	9.191275
1572.000000	9.200348
1570.000000	9.166732
1568.000000	9.165280
1566.000000	9.159294
1564.000000	9.126320
1562.000000	9.029762
1560.000000	8.892227
1558.000000	8.901619
1556.000000	8.996160
1554.000000	9.051110
1552.000000	9.096056
1550.000000	9.121207
1548.000000	9.137977
1546.000000	9.133583
1544.000000	9.108837
1542.000000	9.062092
1540.000000	9.044937
1538.000000	9.141558
1536.000000	9.225556
1534.000000	9.228332
1532.000000	9.255565
1530.000000	9.278039
1528.000000	9.262307
1526.000000	9.240158
1524.000000	9.211984
1522.000000	9.161784
1520.000000	9.169208
1518.000000	9.185462
1516.000000	9.174923
1514.000000	9.163992
1512.000000	9.142251
1510.000000	9.093900
1508.000000	8.983651
1506.000000	8.923289
1504.000000	8.932456
1502.000000	8.828069
1500.000000	8.565312
1498.000000	8.226253
1496.000000	7.975109
1494.000000	7.942681
1492.000000	8.065198
1490.000000	8.254677
1488.000000	8.455547
1486.000000	8.615439
1484.000000	8.716638
1482.000000	8.766008
1480.000000	8.788963
1478.000000	8.782271
1476.000000	8.750421
1474.000000	8.702511
1472.000000	8.686564
1470.000000	8.703416
1468.000000	8.681409
1466.000000	8.621589
1464.000000	8.583392
1462.000000	8.552297
1460.000000	8.453810
1458.000000	8.294302
1456.000000	8.193073
1454.000000	8.148416
1452.000000	8.097575
1450.000000	8.111800
1448.000000	8.203599
1446.000000	8.305263
1444.000000	8.353466
1442.000000	8.363302
1440.000000	8.352086
1438.000000	8.317291
1436.000000	8.319556
1434.000000	8.361886
1432.000000	8.368197
1430.000000	8.362752
1428.000000	8.366933
1426.000000	8.367596
1424.000000	8.357292
1422.000000	8.332463
1420.000000	8.284705
1418.000000	8.281302
1416.000000	8.294733
1414.000000	8.279985
1412.000000	8.244530
1410.000000	8.190556
1408.000000	8.111343
1406.000000	8.026910
1404.000000	7.981969
1402.000000	7.986727
1400.000000	8.015400
1398.000000	8.063332
1396.000000	8.103231
1394.000000	8.137205
1392.000000	8.170109
1390.000000	8.169769
1388.000000	8.138234
1386.000000	8.110791
1384.000000	8.104129
1382.000000	8.119362
1380.000000	8.130139
1378.000000	8.124254
1376.000000	8.109381
1374.000000	8.099068
1372.000000	8.097228
1370.000000	8.086073
1368.000000	8.068908
1366.000000	8.054006
1364.000000	8.031855
1362.000000	8.014444
1360.000000	8.006602
1358.000000	7.995142
1356.000000	7.975750
1354.000000	7.953894
1352.000000	7.932252
1350.000000	7.911970
1348.000000	7.891337
1346.000000	7.867404
1344.000000	7.841964
1342.000000	7.815695
1340.000000	7.792403
1338.000000	7.779970
1336.000000	7.771437
1334.000000	7.761538
1332.000000	7.748077
1330.000000	7.730295
1328.000000	7.706586
1326.000000	7.680981
1324.000000	7.656568
1322.000000	7.629744
1320.000000	7.598206
1318.000000	7.567184
1316.000000	7.536804
1314.000000	7.505976
1312.000000	7.473290
1310.000000	7.440674
1308.000000	7.408834
1306.000000	7.375843
1304.000000	7.340987
1302.000000	7.305439
1300.000000	7.269824
1298.000000	7.234463
1296.000000	7.199344
1294.000000	7.162595
1292.000000	7.122137
1290.000000	7.081113
1288.000000	7.040714
1286.000000	6.999160
1284.000000	6.955611
1282.000000	6.910409
1280.000000	6.861634
1278.000000	6.809281
1276.000000	6.752583
1274.000000	6.686762
1272.000000	6.607282
1270.000000	6.508870
1268.000000	6.381436
1266.000000	6.228147
1264.000000	6.070244
1262.000000	5.946999
1260.000000	5.888993
1258.000000	5.897102
1256.000000	5.941917
1254.000000	5.980429
1252.000000	5.986687
1250.000000	5.963884
1248.000000	5.924139
1246.000000	5.877689
1244.000000	5.825769
1242.000000	5.769459
1240.000000	5.714666
1238.000000	5.663504
1236.000000	5.613179
1234.000000	5.564310
1232.000000	5.517707
1230.000000	5.471624
1228.000000	5.423857
1226.000000	5.374944
1224.000000	5.327023
1222.000000	5.277529
1220.000000	5.224108
1218.000000	5.169749
1216.000000	5.114275
1214.000000	5.059425
1212.000000	5.009118
1210.000000	4.963719
1208.000000	4.918777
1206.000000	4.874950
1204.000000	4.831955
1202.000000	4.789185
1200.000000	4.747826
1198.000000	4.707498
1196.000000	4.663915
1194.000000	4.618563
1192.000000	4.573622
1190.000000	4.527060
1188.000000	4.477069
1186.000000	4.425578
1184.000000	4.363520
1182.000000	4.285416
1180.000000	4.225449
1178.000000	4.199255
1176.000000	4.173473
1174.000000	4.134443
1172.000000	4.088484
1170.000000	4.041284
1168.000000	3.990521
1166.000000	3.938555
1164.000000	3.889122
1162.000000	3.839864
1160.000000	3.790416
1158.000000	3.742497
1156.000000	3.697785
1154.000000	3.653802
1152.000000	3.608565
1150.000000	3.564767
1148.000000	3.520068
1146.000000	3.473500
1144.000000	3.427710
1142.000000	3.388210
1140.000000	3.354668
1138.000000	3.319563
1136.000000	3.280975
1134.000000	3.240842
1132.000000	3.199134
1130.000000	3.155396
1128.000000	3.108744
1126.000000	3.065000
1124.000000	3.022139
1122.000000	2.975782
1120.000000	2.926077
1118.000000	2.876070
1116.000000	2.827790
1114.000000	2.778782
1112.000000	2.727954
1110.000000	2.679009
1108.000000	2.630517
1106.000000	2.583323
1104.000000	2.538759
1102.000000	2.495373
1100.000000	2.451844
1098.000000	2.410336
1096.000000	2.368875
1094.000000	2.329078
1092.000000	2.293107
1090.000000	2.257081
1088.000000	2.221912
1086.000000	2.190528
1084.000000	2.157809
1082.000000	2.123380
1080.000000	2.090017
1078.000000	2.059611
1076.000000	2.033193
1074.000000	2.012043
1072.000000	1.993201
1070.000000	1.972824
1068.000000	1.950354
1066.000000	1.928841
1064.000000	1.907892
1062.000000	1.885712
1060.000000	1.860732
1058.000000	1.832590
1056.000000	1.795149
1054.000000	1.743911
1052.000000	1.692898
1050.000000	1.663226
1048.000000	1.660499
1046.000000	1.671151
1044.000000	1.675274
1042.000000	1.665489
1040.000000	1.647321
1038.000000	1.627190
1036.000000	1.603333
1034.000000	1.578648
1032.000000	1.555036
1030.000000	1.529632
1028.000000	1.502754
1026.000000	1.475374
1024.000000	1.446547
1022.000000	1.417197
1020.000000	1.390892
1018.000000	1.368113
1016.000000	1.346157
1014.000000	1.326272
1012.000000	1.308069
1010.000000	1.291055
1008.000000	1.275517
1006.000000	1.257676
1004.000000	1.236686
1002.000000	1.214555
1000.000000	1.189829
