PE IR       SUBTECH     SPECTRUM    ASCII       PEDS        4.00        
   -1
TE109A_073_80K_after_140K_SB.ASC
20/04/21
20:30:28.00
20/04/21
20:30:28.00
Administrator
TE109A, Tuesday, April 21 2020, 073.
1000.000000
#HDR
-1
-1
#GR
cm-1
EGY
1.0
0.0
6000.000000
-2.000000
2501
8
11.441529
1.203685
#DATA
6000.000000	1.985672
5998.000000	1.991032
5996.000000	1.995966
5994.000000	2.000235
5992.000000	2.004490
5990.000000	2.007908
5988.000000	2.010934
5986.000000	2.014677
5984.000000	2.019490
5982.000000	2.024161
5980.000000	2.026981
5978.000000	2.029517
5976.000000	2.032826
5974.000000	2.036786
5972.000000	2.039989
5970.000000	2.044199
5968.000000	2.049126
5966.000000	2.053385
5964.000000	2.057107
5962.000000	2.060827
5960.000000	2.065303
5958.000000	2.070373
5956.000000	2.076297
5954.000000	2.081404
5952.000000	2.085849
5950.000000	2.088101
5948.000000	2.090552
5946.000000	2.095217
5944.000000	2.099289
5942.000000	2.104149
5940.000000	2.109925
5938.000000	2.116079
5936.000000	2.120883
5934.000000	2.123390
5932.000000	2.125208
5930.000000	2.128574
5928.000000	2.133264
5926.000000	2.137461
5924.000000	2.142539
5922.000000	2.147304
5920.000000	2.151143
5918.000000	2.154621
5916.000000	2.159180
5914.000000	2.164280
5912.000000	2.169278
5910.000000	2.173566
5908.000000	2.177738
5906.000000	2.183514
5904.000000	2.188373
5902.000000	2.191815
5900.000000	2.194752
5898.000000	2.198771
5896.000000	2.203417
5894.000000	2.207756
5892.000000	2.210518
5890.000000	2.215277
5888.000000	2.221188
5886.000000	2.227160
5884.000000	2.232023
5882.000000	2.235874
5880.000000	2.239600
5878.000000	2.243101
5876.000000	2.246549
5874.000000	2.250257
5872.000000	2.254368
5870.000000	2.258474
5868.000000	2.262773
5866.000000	2.267248
5864.000000	2.272221
5862.000000	2.277524
5860.000000	2.282222
5858.000000	2.286168
5856.000000	2.290687
5854.000000	2.295245
5852.000000	2.299435
5850.000000	2.304652
5848.000000	2.308938
5846.000000	2.315245
5844.000000	2.321549
5842.000000	2.327128
5840.000000	2.330917
5838.000000	2.333719
5836.000000	2.338648
5834.000000	2.344978
5832.000000	2.350825
5830.000000	2.355120
5828.000000	2.358831
5826.000000	2.362851
5824.000000	2.368532
5822.000000	2.374630
5820.000000	2.379786
5818.000000	2.385295
5816.000000	2.390657
5814.000000	2.396366
5812.000000	2.401161
5810.000000	2.405134
5808.000000	2.410394
5806.000000	2.414500
5804.000000	2.417897
5802.000000	2.422744
5800.000000	2.426950
5798.000000	2.431026
5796.000000	2.434125
5794.000000	2.438031
5792.000000	2.443283
5790.000000	2.449038
5788.000000	2.454926
5786.000000	2.459760
5784.000000	2.462995
5782.000000	2.467380
5780.000000	2.473180
5778.000000	2.480190
5776.000000	2.486087
5774.000000	2.491331
5772.000000	2.496162
5770.000000	2.500644
5768.000000	2.506597
5766.000000	2.512472
5764.000000	2.518006
5762.000000	2.523042
5760.000000	2.527893
5758.000000	2.531874
5756.000000	2.535282
5754.000000	2.540521
5752.000000	2.547555
5750.000000	2.553634
5748.000000	2.557758
5746.000000	2.562034
5744.000000	2.567826
5742.000000	2.573134
5740.000000	2.576647
5738.000000	2.580166
5736.000000	2.584773
5734.000000	2.590042
5732.000000	2.595305
5730.000000	2.599917
5728.000000	2.605343
5726.000000	2.610743
5724.000000	2.616942
5722.000000	2.623291
5720.000000	2.626423
5718.000000	2.629247
5716.000000	2.633331
5714.000000	2.640393
5712.000000	2.647816
5710.000000	2.653345
5708.000000	2.658320
5706.000000	2.662532
5704.000000	2.666350
5702.000000	2.670468
5700.000000	2.675841
5698.000000	2.682685
5696.000000	2.689386
5694.000000	2.693688
5692.000000	2.696914
5690.000000	2.700816
5688.000000	2.707229
5686.000000	2.713779
5684.000000	2.719153
5682.000000	2.724391
5680.000000	2.729988
5678.000000	2.734851
5676.000000	2.739555
5674.000000	2.745402
5672.000000	2.752143
5670.000000	2.758922
5668.000000	2.765050
5666.000000	2.769981
5664.000000	2.774800
5662.000000	2.779164
5660.000000	2.784555
5658.000000	2.790073
5656.000000	2.795398
5654.000000	2.800781
5652.000000	2.805574
5650.000000	2.811719
5648.000000	2.818252
5646.000000	2.825512
5644.000000	2.830766
5642.000000	2.835120
5640.000000	2.840653
5638.000000	2.846785
5636.000000	2.853293
5634.000000	2.858529
5632.000000	2.862884
5630.000000	2.866736
5628.000000	2.870327
5626.000000	2.875488
5624.000000	2.882325
5622.000000	2.888068
5620.000000	2.892007
5618.000000	2.897063
5616.000000	2.904913
5614.000000	2.913774
5612.000000	2.919980
5610.000000	2.923985
5608.000000	2.927655
5606.000000	2.931091
5604.000000	2.935847
5602.000000	2.940771
5600.000000	2.946260
5598.000000	2.951430
5596.000000	2.956977
5594.000000	2.963800
5592.000000	2.970480
5590.000000	2.976731
5588.000000	2.981091
5586.000000	2.985535
5584.000000	2.990963
5582.000000	2.997367
5580.000000	3.002365
5578.000000	3.007624
5576.000000	3.013577
5574.000000	3.019981
5572.000000	3.026126
5570.000000	3.031865
5568.000000	3.038505
5566.000000	3.043677
5564.000000	3.047622
5562.000000	3.051663
5560.000000	3.057899
5558.000000	3.066005
5556.000000	3.073142
5554.000000	3.078838
5552.000000	3.083400
5550.000000	3.088176
5548.000000	3.093936
5546.000000	3.100074
5544.000000	3.106098
5542.000000	3.112006
5540.000000	3.117714
5538.000000	3.124163
5536.000000	3.128758
5534.000000	3.132098
5532.000000	3.136818
5530.000000	3.144682
5528.000000	3.154042
5526.000000	3.160318
5524.000000	3.164473
5522.000000	3.169195
5520.000000	3.175138
5518.000000	3.180733
5516.000000	3.185005
5514.000000	3.189735
5512.000000	3.195059
5510.000000	3.201582
5508.000000	3.208352
5506.000000	3.213956
5504.000000	3.219675
5502.000000	3.226139
5500.000000	3.232232
5498.000000	3.237107
5496.000000	3.241553
5494.000000	3.247095
5492.000000	3.253245
5490.000000	3.259225
5488.000000	3.264667
5486.000000	3.270571
5484.000000	3.278143
5482.000000	3.285187
5480.000000	3.289317
5478.000000	3.292120
5476.000000	3.297352
5474.000000	3.305350
5472.000000	3.312690
5470.000000	3.318503
5468.000000	3.322863
5466.000000	3.326925
5464.000000	3.332681
5462.000000	3.340947
5460.000000	3.349072
5458.000000	3.355422
5456.000000	3.360248
5454.000000	3.365128
5452.000000	3.370666
5450.000000	3.376229
5448.000000	3.380841
5446.000000	3.386375
5444.000000	3.393245
5442.000000	3.400850
5440.000000	3.406569
5438.000000	3.410645
5436.000000	3.415421
5434.000000	3.422391
5432.000000	3.429164
5430.000000	3.434957
5428.000000	3.441254
5426.000000	3.447784
5424.000000	3.453570
5422.000000	3.457616
5420.000000	3.463114
5418.000000	3.470076
5416.000000	3.476383
5414.000000	3.482407
5412.000000	3.488223
5410.000000	3.495079
5408.000000	3.502004
5406.000000	3.508321
5404.000000	3.513526
5402.000000	3.519183
5400.000000	3.524658
5398.000000	3.528022
5396.000000	3.529938
5394.000000	3.535289
5392.000000	3.544702
5390.000000	3.553095
5388.000000	3.558413
5386.000000	3.563574
5384.000000	3.570183
5382.000000	3.576014
5380.000000	3.580476
5378.000000	3.585945
5376.000000	3.592370
5374.000000	3.598990
5372.000000	3.605936
5370.000000	3.614192
5368.000000	3.621491
5366.000000	3.625952
5364.000000	3.629513
5362.000000	3.636743
5360.000000	3.646103
5358.000000	3.654109
5356.000000	3.659764
5354.000000	3.665179
5352.000000	3.670918
5350.000000	3.676081
5348.000000	3.681088
5346.000000	3.685833
5344.000000	3.691843
5342.000000	3.697485
5340.000000	3.703131
5338.000000	3.709092
5336.000000	3.715654
5334.000000	3.722548
5332.000000	3.728160
5330.000000	3.734198
5328.000000	3.739779
5326.000000	3.745585
5324.000000	3.751509
5322.000000	3.758638
5320.000000	3.766014
5318.000000	3.772167
5316.000000	3.776606
5314.000000	3.782070
5312.000000	3.789260
5310.000000	3.795640
5308.000000	3.800786
5306.000000	3.805558
5304.000000	3.810522
5302.000000	3.815229
5300.000000	3.821195
5298.000000	3.828444
5296.000000	3.835863
5294.000000	3.841330
5292.000000	3.846521
5290.000000	3.851622
5288.000000	3.857271
5286.000000	3.863391
5284.000000	3.869986
5282.000000	3.877488
5280.000000	3.884403
5278.000000	3.889569
5276.000000	3.892935
5274.000000	3.896757
5272.000000	3.903275
5270.000000	3.911582
5268.000000	3.918188
5266.000000	3.922935
5264.000000	3.928981
5262.000000	3.936800
5260.000000	3.942829
5258.000000	3.945501
5256.000000	3.949179
5254.000000	3.955349
5252.000000	3.961831
5250.000000	3.966390
5248.000000	3.971817
5246.000000	3.979226
5244.000000	3.987256
5242.000000	3.992688
5240.000000	3.996249
5238.000000	4.000741
5236.000000	4.006936
5234.000000	4.013279
5232.000000	4.018013
5230.000000	4.021144
5228.000000	4.024932
5226.000000	4.031391
5224.000000	4.038875
5222.000000	4.045229
5220.000000	4.049995
5218.000000	4.055154
5216.000000	4.061429
5214.000000	4.067436
5212.000000	4.071273
5210.000000	4.073174
5208.000000	4.075971
5206.000000	4.082272
5204.000000	4.090519
5202.000000	4.097404
5200.000000	4.102512
5198.000000	4.108044
5196.000000	4.116203
5194.000000	4.124708
5192.000000	4.130772
5190.000000	4.135106
5188.000000	4.138769
5186.000000	4.143713
5184.000000	4.149418
5182.000000	4.155265
5180.000000	4.161161
5178.000000	4.165911
5176.000000	4.170515
5174.000000	4.175753
5172.000000	4.182608
5170.000000	4.189517
5168.000000	4.193923
5166.000000	4.196728
5164.000000	4.200792
5162.000000	4.207273
5160.000000	4.214433
5158.000000	4.220182
5156.000000	4.226146
5154.000000	4.232915
5152.000000	4.239512
5150.000000	4.244771
5148.000000	4.248682
5146.000000	4.254087
5144.000000	4.260383
5142.000000	4.265905
5140.000000	4.268657
5138.000000	4.271527
5136.000000	4.276332
5134.000000	4.282758
5132.000000	4.290351
5130.000000	4.298133
5128.000000	4.303060
5126.000000	4.305330
5124.000000	4.308609
5122.000000	4.313890
5120.000000	4.319701
5118.000000	4.325182
5116.000000	4.331367
5114.000000	4.338071
5112.000000	4.343942
5110.000000	4.348880
5108.000000	4.353619
5106.000000	4.360015
5104.000000	4.367425
5102.000000	4.373772
5100.000000	4.378935
5098.000000	4.383259
5096.000000	4.387420
5094.000000	4.393170
5092.000000	4.400619
5090.000000	4.408381
5088.000000	4.414965
5086.000000	4.420270
5084.000000	4.423830
5082.000000	4.428473
5080.000000	4.436646
5078.000000	4.446202
5076.000000	4.453255
5074.000000	4.458022
5072.000000	4.462438
5070.000000	4.467672
5068.000000	4.473865
5066.000000	4.480458
5064.000000	4.486197
5062.000000	4.491784
5060.000000	4.498331
5058.000000	4.505510
5056.000000	4.511600
5054.000000	4.517888
5052.000000	4.524867
5050.000000	4.530776
5048.000000	4.534552
5046.000000	4.538993
5044.000000	4.545264
5042.000000	4.552237
5040.000000	4.558335
5038.000000	4.563960
5036.000000	4.570946
5034.000000	4.577718
5032.000000	4.583135
5030.000000	4.587098
5028.000000	4.591329
5026.000000	4.598610
5024.000000	4.607166
5022.000000	4.614457
5020.000000	4.619635
5018.000000	4.626105
5016.000000	4.632876
5014.000000	4.638983
5012.000000	4.645801
5010.000000	4.652974
5008.000000	4.659011
5006.000000	4.665358
5004.000000	4.671445
5002.000000	4.676685
5000.000000	4.681825
4998.000000	4.689468
4996.000000	4.699127
4994.000000	4.707696
4992.000000	4.713180
4990.000000	4.716677
4988.000000	4.721153
4986.000000	4.727220
4984.000000	4.733304
4982.000000	4.741342
4980.000000	4.750374
4978.000000	4.758487
4976.000000	4.764589
4974.000000	4.771504
4972.000000	4.779232
4970.000000	4.786613
4968.000000	4.793222
4966.000000	4.800165
4964.000000	4.807543
4962.000000	4.814927
4960.000000	4.821109
4958.000000	4.827407
4956.000000	4.834002
4954.000000	4.841241
4952.000000	4.847179
4950.000000	4.851961
4948.000000	4.856896
4946.000000	4.864946
4944.000000	4.874165
4942.000000	4.881146
4940.000000	4.885474
4938.000000	4.889864
4936.000000	4.896483
4934.000000	4.905495
4932.000000	4.914157
4930.000000	4.920768
4928.000000	4.927408
4926.000000	4.936074
4924.000000	4.943934
4922.000000	4.949458
4920.000000	4.954753
4918.000000	4.961433
4916.000000	4.967656
4914.000000	4.973785
4912.000000	4.980081
4910.000000	4.987418
4908.000000	4.995574
4906.000000	5.004740
4904.000000	5.011832
4902.000000	5.017637
4900.000000	5.023695
4898.000000	5.030525
4896.000000	5.037816
4894.000000	5.046499
4892.000000	5.055820
4890.000000	5.065226
4888.000000	5.074203
4886.000000	5.081588
4884.000000	5.086985
4882.000000	5.092958
4880.000000	5.100495
4878.000000	5.108766
4876.000000	5.116840
4874.000000	5.125232
4872.000000	5.132218
4870.000000	5.138339
4868.000000	5.146047
4866.000000	5.155716
4864.000000	5.163622
4862.000000	5.169044
4860.000000	5.174433
4858.000000	5.181429
4856.000000	5.190719
4854.000000	5.199637
4852.000000	5.207170
4850.000000	5.212942
4848.000000	5.218160
4846.000000	5.224465
4844.000000	5.232681
4842.000000	5.241580
4840.000000	5.249630
4838.000000	5.257494
4836.000000	5.265417
4834.000000	5.273938
4832.000000	5.281710
4830.000000	5.289007
4828.000000	5.296948
4826.000000	5.305036
4824.000000	5.312723
4822.000000	5.320873
4820.000000	5.328635
4818.000000	5.335061
4816.000000	5.342676
4814.000000	5.351958
4812.000000	5.359983
4810.000000	5.366407
4808.000000	5.374408
4806.000000	5.384374
4804.000000	5.393683
4802.000000	5.400975
4800.000000	5.408171
4798.000000	5.416598
4796.000000	5.426032
4794.000000	5.433900
4792.000000	5.441232
4790.000000	5.450805
4788.000000	5.462342
4786.000000	5.472903
4784.000000	5.481512
4782.000000	5.488758
4780.000000	5.496501
4778.000000	5.505561
4776.000000	5.514170
4774.000000	5.522439
4772.000000	5.531174
4770.000000	5.541267
4768.000000	5.550159
4766.000000	5.557681
4764.000000	5.564350
4762.000000	5.572482
4760.000000	5.580499
4758.000000	5.587807
4756.000000	5.595439
4754.000000	5.604670
4752.000000	5.614300
4750.000000	5.623187
4748.000000	5.631229
4746.000000	5.638994
4744.000000	5.646817
4742.000000	5.655514
4740.000000	5.665058
4738.000000	5.673953
4736.000000	5.681444
4734.000000	5.688387
4732.000000	5.695763
4730.000000	5.704588
4728.000000	5.714624
4726.000000	5.724756
4724.000000	5.733468
4722.000000	5.740446
4720.000000	5.747306
4718.000000	5.755358
4716.000000	5.764987
4714.000000	5.775281
4712.000000	5.785013
4710.000000	5.793215
4708.000000	5.801180
4706.000000	5.809059
4704.000000	5.817184
4702.000000	5.826466
4700.000000	5.835984
4698.000000	5.844085
4696.000000	5.852028
4694.000000	5.860917
4692.000000	5.870059
4690.000000	5.878712
4688.000000	5.886503
4686.000000	5.894500
4684.000000	5.903784
4682.000000	5.913592
4680.000000	5.922861
4678.000000	5.932092
4676.000000	5.940937
4674.000000	5.948329
4672.000000	5.955395
4670.000000	5.964112
4668.000000	5.972974
4666.000000	5.981039
4664.000000	5.988807
4662.000000	5.997036
4660.000000	6.004428
4658.000000	6.011299
4656.000000	6.018077
4654.000000	6.025645
4652.000000	6.034195
4650.000000	6.044198
4648.000000	6.053649
4646.000000	6.060707
4644.000000	6.067608
4642.000000	6.075726
4640.000000	6.083688
4638.000000	6.091643
4636.000000	6.100735
4634.000000	6.109503
4632.000000	6.116907
4630.000000	6.125173
4628.000000	6.134608
4626.000000	6.142717
4624.000000	6.148635
4622.000000	6.155719
4620.000000	6.164068
4618.000000	6.172652
4616.000000	6.181197
4614.000000	6.189836
4612.000000	6.198140
4610.000000	6.205778
4608.000000	6.213480
4606.000000	6.222041
4604.000000	6.231910
4602.000000	6.241824
4600.000000	6.250779
4598.000000	6.257776
4596.000000	6.264776
4594.000000	6.272907
4592.000000	6.281356
4590.000000	6.290465
4588.000000	6.300065
4586.000000	6.309444
4584.000000	6.317589
4582.000000	6.324553
4580.000000	6.331005
4578.000000	6.339234
4576.000000	6.348539
4574.000000	6.357525
4572.000000	6.365249
4570.000000	6.372481
4568.000000	6.380429
4566.000000	6.388771
4564.000000	6.396641
4562.000000	6.404869
4560.000000	6.413786
4558.000000	6.422742
4556.000000	6.431325
4554.000000	6.439374
4552.000000	6.446232
4550.000000	6.452269
4548.000000	6.458252
4546.000000	6.465158
4544.000000	6.472726
4542.000000	6.481478
4540.000000	6.490844
4538.000000	6.499394
4536.000000	6.506682
4534.000000	6.515028
4532.000000	6.524880
4530.000000	6.534233
4528.000000	6.540492
4526.000000	6.545798
4524.000000	6.554199
4522.000000	6.565036
4520.000000	6.574439
4518.000000	6.582170
4516.000000	6.589064
4514.000000	6.596227
4512.000000	6.603609
4510.000000	6.611986
4508.000000	6.621559
4506.000000	6.630801
4504.000000	6.638109
4502.000000	6.645495
4500.000000	6.653388
4498.000000	6.661365
4496.000000	6.669647
4494.000000	6.678529
4492.000000	6.687516
4490.000000	6.696759
4488.000000	6.705808
4486.000000	6.714278
4484.000000	6.722038
4482.000000	6.730478
4480.000000	6.739641
4478.000000	6.748344
4476.000000	6.755754
4474.000000	6.762637
4472.000000	6.770433
4470.000000	6.779353
4468.000000	6.787830
4466.000000	6.796095
4464.000000	6.804226
4462.000000	6.810679
4460.000000	6.816110
4458.000000	6.821730
4456.000000	6.828338
4454.000000	6.836318
4452.000000	6.845043
4450.000000	6.854091
4448.000000	6.862984
4446.000000	6.870892
4444.000000	6.878311
4442.000000	6.885885
4440.000000	6.893531
4438.000000	6.900801
4436.000000	6.906816
4434.000000	6.912590
4432.000000	6.920394
4430.000000	6.929714
4428.000000	6.938853
4426.000000	6.946587
4424.000000	6.953326
4422.000000	6.960073
4420.000000	6.968699
4418.000000	6.977520
4416.000000	6.984788
4414.000000	6.991653
4412.000000	7.000001
4410.000000	7.009170
4408.000000	7.018499
4406.000000	7.026848
4404.000000	7.033365
4402.000000	7.039206
4400.000000	7.046763
4398.000000	7.056293
4396.000000	7.064607
4394.000000	7.071065
4392.000000	7.078518
4390.000000	7.087592
4388.000000	7.096269
4386.000000	7.103563
4384.000000	7.109818
4382.000000	7.116153
4380.000000	7.123350
4378.000000	7.131524
4376.000000	7.140140
4374.000000	7.147459
4372.000000	7.153012
4370.000000	7.158139
4368.000000	7.163641
4366.000000	7.170243
4364.000000	7.177765
4362.000000	7.185428
4360.000000	7.193430
4358.000000	7.200633
4356.000000	7.206104
4354.000000	7.212758
4352.000000	7.221239
4350.000000	7.229111
4348.000000	7.234985
4346.000000	7.241314
4344.000000	7.249373
4342.000000	7.257077
4340.000000	7.264530
4338.000000	7.273158
4336.000000	7.281174
4334.000000	7.288570
4332.000000	7.295363
4330.000000	7.300790
4328.000000	7.307104
4326.000000	7.316338
4324.000000	7.325687
4322.000000	7.333067
4320.000000	7.339613
4318.000000	7.347223
4316.000000	7.354572
4314.000000	7.360642
4312.000000	7.367236
4310.000000	7.375059
4308.000000	7.383372
4306.000000	7.392765
4304.000000	7.402045
4302.000000	7.410641
4300.000000	7.418647
4298.000000	7.425620
4296.000000	7.432107
4294.000000	7.438901
4292.000000	7.447154
4290.000000	7.455852
4288.000000	7.463109
4286.000000	7.470913
4284.000000	7.478551
4282.000000	7.483609
4280.000000	7.489297
4278.000000	7.496447
4276.000000	7.502699
4274.000000	7.508508
4272.000000	7.515138
4270.000000	7.522925
4268.000000	7.529757
4266.000000	7.534135
4264.000000	7.539840
4262.000000	7.548510
4260.000000	7.556427
4258.000000	7.563574
4256.000000	7.570966
4254.000000	7.577836
4252.000000	7.585588
4250.000000	7.595570
4248.000000	7.604426
4246.000000	7.611052
4244.000000	7.617054
4242.000000	7.623699
4240.000000	7.631438
4238.000000	7.639720
4236.000000	7.647146
4234.000000	7.654111
4232.000000	7.660587
4230.000000	7.667418
4228.000000	7.675122
4226.000000	7.682144
4224.000000	7.689421
4222.000000	7.698692
4220.000000	7.706664
4218.000000	7.713654
4216.000000	7.722520
4214.000000	7.731241
4212.000000	7.739557
4210.000000	7.748153
4208.000000	7.754735
4206.000000	7.761213
4204.000000	7.770417
4202.000000	7.780745
4200.000000	7.789573
4198.000000	7.797256
4196.000000	7.805645
4194.000000	7.815279
4192.000000	7.824678
4190.000000	7.832431
4188.000000	7.840395
4186.000000	7.849748
4184.000000	7.857558
4182.000000	7.863777
4180.000000	7.871256
4178.000000	7.879362
4176.000000	7.887351
4174.000000	7.895312
4172.000000	7.902259
4170.000000	7.909762
4168.000000	7.919610
4166.000000	7.928799
4164.000000	7.936311
4162.000000	7.943935
4160.000000	7.951356
4158.000000	7.958438
4156.000000	7.966918
4154.000000	7.976468
4152.000000	7.984584
4150.000000	7.991532
4148.000000	7.999455
4146.000000	8.007129
4144.000000	8.013963
4142.000000	8.022249
4140.000000	8.031094
4138.000000	8.038673
4136.000000	8.046507
4134.000000	8.055772
4132.000000	8.066223
4130.000000	8.075740
4128.000000	8.083429
4126.000000	8.090072
4124.000000	8.096583
4122.000000	8.103826
4120.000000	8.112399
4118.000000	8.121406
4116.000000	8.129407
4114.000000	8.136594
4112.000000	8.144746
4110.000000	8.153933
4108.000000	8.163790
4106.000000	8.172801
4104.000000	8.180190
4102.000000	8.187132
4100.000000	8.195223
4098.000000	8.204069
4096.000000	8.212412
4094.000000	8.220866
4092.000000	8.229399
4090.000000	8.237019
4088.000000	8.245443
4086.000000	8.255595
4084.000000	8.264838
4082.000000	8.272670
4080.000000	8.280924
4078.000000	8.289999
4076.000000	8.299110
4074.000000	8.306789
4072.000000	8.312970
4070.000000	8.320201
4068.000000	8.328739
4066.000000	8.337496
4064.000000	8.345664
4062.000000	8.352526
4060.000000	8.360016
4058.000000	8.369321
4056.000000	8.378344
4054.000000	8.385950
4052.000000	8.393610
4050.000000	8.403123
4048.000000	8.412414
4046.000000	8.420051
4044.000000	8.427419
4042.000000	8.435098
4040.000000	8.443830
4038.000000	8.453483
4036.000000	8.462672
4034.000000	8.470358
4032.000000	8.477569
4030.000000	8.487855
4028.000000	8.499819
4026.000000	8.507516
4024.000000	8.511968
4022.000000	8.519174
4020.000000	8.529622
4018.000000	8.539438
4016.000000	8.547526
4014.000000	8.556285
4012.000000	8.565766
4010.000000	8.574685
4008.000000	8.584590
4006.000000	8.595772
4004.000000	8.603635
4002.000000	8.609042
4000.000000	8.618102
3998.000000	8.628481
3996.000000	8.637071
3994.000000	8.646609
3992.000000	8.655776
3990.000000	8.663369
3988.000000	8.671279
3986.000000	8.679254
3984.000000	8.687294
3982.000000	8.697064
3980.000000	8.706201
3978.000000	8.712910
3976.000000	8.719017
3974.000000	8.725725
3972.000000	8.734613
3970.000000	8.745100
3968.000000	8.755355
3966.000000	8.764772
3964.000000	8.772039
3962.000000	8.779503
3960.000000	8.788453
3958.000000	8.797273
3956.000000	8.806604
3954.000000	8.816280
3952.000000	8.823242
3950.000000	8.827897
3948.000000	8.834648
3946.000000	8.843765
3944.000000	8.852671
3942.000000	8.863395
3940.000000	8.876311
3938.000000	8.887279
3936.000000	8.893091
3934.000000	8.895457
3932.000000	8.901827
3930.000000	8.914592
3928.000000	8.926919
3926.000000	8.936301
3924.000000	8.946388
3922.000000	8.955938
3920.000000	8.961591
3918.000000	8.969460
3916.000000	8.986215
3914.000000	9.005267
3912.000000	9.017602
3910.000000	9.023532
3908.000000	9.020894
3906.000000	9.009753
3904.000000	9.005709
3902.000000	9.016791
3900.000000	9.038514
3898.000000	9.065984
3896.000000	9.084493
3894.000000	9.084640
3892.000000	9.084440
3890.000000	9.095331
3888.000000	9.097656
3886.000000	9.099674
3884.000000	9.118516
3882.000000	9.134104
3880.000000	9.148068
3878.000000	9.165208
3876.000000	9.170912
3874.000000	9.165439
3872.000000	9.152977
3870.000000	9.156452
3868.000000	9.179538
3866.000000	9.193473
3864.000000	9.206109
3862.000000	9.229954
3860.000000	9.247511
3858.000000	9.225494
3856.000000	9.157201
3854.000000	9.127430
3852.000000	9.191437
3850.000000	9.274854
3848.000000	9.313793
3846.000000	9.319467
3844.000000	9.315483
3842.000000	9.304423
3840.000000	9.279446
3838.000000	9.274802
3836.000000	9.311147
3834.000000	9.349372
3832.000000	9.372598
3830.000000	9.390794
3828.000000	9.403561
3826.000000	9.409245
3824.000000	9.397068
3822.000000	9.387423
3820.000000	9.400332
3818.000000	9.401857
3816.000000	9.412312
3814.000000	9.459407
3812.000000	9.494042
3810.000000	9.488865
3808.000000	9.474065
3806.000000	9.479780
3804.000000	9.475230
3802.000000	9.467113
3800.000000	9.500018
3798.000000	9.538921
3796.000000	9.559477
3794.000000	9.578276
3792.000000	9.592365
3790.000000	9.600528
3788.000000	9.606443
3786.000000	9.613413
3784.000000	9.621855
3782.000000	9.624622
3780.000000	9.628375
3778.000000	9.643859
3776.000000	9.661085
3774.000000	9.667262
3772.000000	9.661071
3770.000000	9.660500
3768.000000	9.673068
3766.000000	9.688100
3764.000000	9.700783
3762.000000	9.704097
3760.000000	9.704482
3758.000000	9.714392
3756.000000	9.709534
3754.000000	9.667398
3752.000000	9.629232
3750.000000	9.641767
3748.000000	9.661862
3746.000000	9.644752
3744.000000	9.668039
3742.000000	9.742064
3740.000000	9.770980
3738.000000	9.750306
3736.000000	9.737711
3734.000000	9.752324
3732.000000	9.783954
3730.000000	9.814777
3728.000000	9.826014
3726.000000	9.829855
3724.000000	9.837324
3722.000000	9.847426
3720.000000	9.859453
3718.000000	9.868926
3716.000000	9.864621
3714.000000	9.840831
3712.000000	9.829659
3710.000000	9.851093
3708.000000	9.881564
3706.000000	9.897080
3704.000000	9.893258
3702.000000	9.891357
3700.000000	9.903022
3698.000000	9.912496
3696.000000	9.912827
3694.000000	9.899996
3692.000000	9.867802
3690.000000	9.835730
3688.000000	9.848693
3686.000000	9.894954
3684.000000	9.919548
3682.000000	9.917233
3680.000000	9.895463
3678.000000	9.848101
3676.000000	9.817279
3674.000000	9.828297
3672.000000	9.829710
3670.000000	9.834061
3668.000000	9.867235
3666.000000	9.889958
3664.000000	9.890755
3662.000000	9.884721
3660.000000	9.867451
3658.000000	9.839403
3656.000000	9.827110
3654.000000	9.819285
3652.000000	9.778248
3650.000000	9.738076
3648.000000	9.747061
3646.000000	9.780063
3644.000000	9.794114
3642.000000	9.788553
3640.000000	9.777819
3638.000000	9.764648
3636.000000	9.747051
3634.000000	9.723717
3632.000000	9.679692
3630.000000	9.631435
3628.000000	9.633076
3626.000000	9.661918
3624.000000	9.662564
3622.000000	9.631952
3620.000000	9.601064
3618.000000	9.592912
3616.000000	9.586364
3614.000000	9.565215
3612.000000	9.541334
3610.000000	9.523722
3608.000000	9.519310
3606.000000	9.520217
3604.000000	9.510605
3602.000000	9.492679
3600.000000	9.474686
3598.000000	9.456281
3596.000000	9.438088
3594.000000	9.425613
3592.000000	9.409685
3590.000000	9.380583
3588.000000	9.358572
3586.000000	9.358104
3584.000000	9.359931
3582.000000	9.350894
3580.000000	9.337913
3578.000000	9.327859
3576.000000	9.318763
3574.000000	9.308112
3572.000000	9.291999
3570.000000	9.267439
3568.000000	9.246745
3566.000000	9.243831
3564.000000	9.247973
3562.000000	9.245603
3560.000000	9.239609
3558.000000	9.232718
3556.000000	9.223819
3554.000000	9.214448
3552.000000	9.208029
3550.000000	9.201508
3548.000000	9.190405
3546.000000	9.181055
3544.000000	9.178761
3542.000000	9.178538
3540.000000	9.174474
3538.000000	9.166283
3536.000000	9.159416
3534.000000	9.155453
3532.000000	9.147405
3530.000000	9.136459
3528.000000	9.127811
3526.000000	9.121615
3524.000000	9.115134
3522.000000	9.108604
3520.000000	9.103208
3518.000000	9.096974
3516.000000	9.088945
3514.000000	9.080656
3512.000000	9.072025
3510.000000	9.063256
3508.000000	9.054579
3506.000000	9.042579
3504.000000	9.028669
3502.000000	9.018532
3500.000000	9.009731
3498.000000	8.998902
3496.000000	8.987959
3494.000000	8.977749
3492.000000	8.965784
3490.000000	8.952190
3488.000000	8.942016
3486.000000	8.933512
3484.000000	8.921918
3482.000000	8.910817
3480.000000	8.903596
3478.000000	8.898751
3476.000000	8.892206
3474.000000	8.884727
3472.000000	8.880030
3470.000000	8.876319
3468.000000	8.872190
3466.000000	8.868338
3464.000000	8.865459
3462.000000	8.863207
3460.000000	8.860883
3458.000000	8.859939
3456.000000	8.859372
3454.000000	8.856305
3452.000000	8.851100
3450.000000	8.846701
3448.000000	8.843578
3446.000000	8.842575
3444.000000	8.843689
3442.000000	8.845006
3440.000000	8.848129
3438.000000	8.853755
3436.000000	8.861225
3434.000000	8.871268
3432.000000	8.882228
3430.000000	8.892856
3428.000000	8.903240
3426.000000	8.913275
3424.000000	8.924323
3422.000000	8.936193
3420.000000	8.946762
3418.000000	8.954530
3416.000000	8.960849
3414.000000	8.967928
3412.000000	8.973688
3410.000000	8.976987
3408.000000	8.980189
3406.000000	8.985100
3404.000000	8.988916
3402.000000	8.992560
3400.000000	8.996962
3398.000000	9.000960
3396.000000	9.007598
3394.000000	9.014311
3392.000000	9.018679
3390.000000	9.024613
3388.000000	9.032355
3386.000000	9.037210
3384.000000	9.042241
3382.000000	9.048295
3380.000000	9.052815
3378.000000	9.058294
3376.000000	9.062760
3374.000000	9.064810
3372.000000	9.066737
3370.000000	9.069848
3368.000000	9.075339
3366.000000	9.081346
3364.000000	9.085205
3362.000000	9.089575
3360.000000	9.093329
3358.000000	9.094564
3356.000000	9.097745
3354.000000	9.103723
3352.000000	9.107008
3350.000000	9.108688
3348.000000	9.112095
3346.000000	9.116522
3344.000000	9.121650
3342.000000	9.126002
3340.000000	9.128056
3338.000000	9.129934
3336.000000	9.135096
3334.000000	9.141782
3332.000000	9.146002
3330.000000	9.149500
3328.000000	9.153649
3326.000000	9.155872
3324.000000	9.158443
3322.000000	9.164141
3320.000000	9.168707
3318.000000	9.170051
3316.000000	9.170862
3314.000000	9.172604
3312.000000	9.175444
3310.000000	9.177073
3308.000000	9.178303
3306.000000	9.181962
3304.000000	9.186208
3302.000000	9.189265
3300.000000	9.190728
3298.000000	9.192985
3296.000000	9.196749
3294.000000	9.200367
3292.000000	9.203733
3290.000000	9.205632
3288.000000	9.207233
3286.000000	9.211787
3284.000000	9.216483
3282.000000	9.218968
3280.000000	9.221701
3278.000000	9.225885
3276.000000	9.229463
3274.000000	9.230801
3272.000000	9.232581
3270.000000	9.235881
3268.000000	9.239078
3266.000000	9.243821
3264.000000	9.248400
3262.000000	9.251742
3260.000000	9.256001
3258.000000	9.259961
3256.000000	9.262256
3254.000000	9.265929
3252.000000	9.271446
3250.000000	9.276191
3248.000000	9.280445
3246.000000	9.284576
3244.000000	9.288152
3242.000000	9.292746
3240.000000	9.296884
3238.000000	9.301691
3236.000000	9.306633
3234.000000	9.310020
3232.000000	9.313699
3230.000000	9.318110
3228.000000	9.323401
3226.000000	9.329654
3224.000000	9.334638
3222.000000	9.338076
3220.000000	9.341027
3218.000000	9.343604
3216.000000	9.347209
3214.000000	9.352399
3212.000000	9.358421
3210.000000	9.363847
3208.000000	9.368467
3206.000000	9.374964
3204.000000	9.381145
3202.000000	9.387066
3200.000000	9.394970
3198.000000	9.403589
3196.000000	9.411289
3194.000000	9.418269
3192.000000	9.424905
3190.000000	9.432577
3188.000000	9.441871
3186.000000	9.449671
3184.000000	9.454951
3182.000000	9.462020
3180.000000	9.469949
3178.000000	9.476895
3176.000000	9.483701
3174.000000	9.490578
3172.000000	9.498279
3170.000000	9.506557
3168.000000	9.514441
3166.000000	9.521254
3164.000000	9.528995
3162.000000	9.537558
3160.000000	9.545618
3158.000000	9.552692
3156.000000	9.560011
3154.000000	9.568197
3152.000000	9.575751
3150.000000	9.583044
3148.000000	9.591030
3146.000000	9.600088
3144.000000	9.609600
3142.000000	9.617787
3140.000000	9.625477
3138.000000	9.633920
3136.000000	9.641048
3134.000000	9.644929
3132.000000	9.649419
3130.000000	9.656748
3128.000000	9.664738
3126.000000	9.671068
3124.000000	9.675134
3122.000000	9.679433
3120.000000	9.684641
3118.000000	9.691240
3116.000000	9.696495
3114.000000	9.700377
3112.000000	9.705331
3110.000000	9.710317
3108.000000	9.715416
3106.000000	9.721678
3104.000000	9.727565
3102.000000	9.733523
3100.000000	9.740724
3098.000000	9.747530
3096.000000	9.753876
3094.000000	9.761384
3092.000000	9.769234
3090.000000	9.774472
3088.000000	9.777691
3086.000000	9.781356
3084.000000	9.786668
3082.000000	9.792370
3080.000000	9.796431
3078.000000	9.799144
3076.000000	9.801157
3074.000000	9.803716
3072.000000	9.807329
3070.000000	9.810005
3068.000000	9.811439
3066.000000	9.812594
3064.000000	9.814911
3062.000000	9.818855
3060.000000	9.824593
3058.000000	9.831236
3056.000000	9.838288
3054.000000	9.845668
3052.000000	9.852065
3050.000000	9.856870
3048.000000	9.860485
3046.000000	9.864601
3044.000000	9.868201
3042.000000	9.871245
3040.000000	9.874121
3038.000000	9.877584
3036.000000	9.879608
3034.000000	9.879227
3032.000000	9.878142
3030.000000	9.874484
3028.000000	9.866632
3026.000000	9.855552
3024.000000	9.841963
3022.000000	9.828687
3020.000000	9.823958
3018.000000	9.831028
3016.000000	9.848638
3014.000000	9.875374
3012.000000	9.906711
3010.000000	9.937328
3008.000000	9.961791
3006.000000	9.980095
3004.000000	9.994848
3002.000000	10.003818
3000.000000	10.008155
2998.000000	10.011805
2996.000000	10.015861
2994.000000	10.019842
2992.000000	10.022066
2990.000000	10.022762
2988.000000	10.021689
2986.000000	10.019476
2984.000000	10.014053
2982.000000	10.004154
2980.000000	9.990868
2978.000000	9.972370
2976.000000	9.945967
2974.000000	9.910372
2972.000000	9.865876
2970.000000	9.812048
2968.000000	9.752438
2966.000000	9.698810
2964.000000	9.663068
2962.000000	9.649826
2960.000000	9.657817
2958.000000	9.682586
2956.000000	9.712218
2954.000000	9.737731
2952.000000	9.756111
2950.000000	9.766113
2948.000000	9.765066
2946.000000	9.750252
2944.000000	9.719229
2942.000000	9.675548
2940.000000	9.626112
2938.000000	9.575181
2936.000000	9.528081
2934.000000	9.484856
2932.000000	9.443254
2930.000000	9.404219
2928.000000	9.372995
2926.000000	9.360382
2924.000000	9.378038
2922.000000	9.430031
2920.000000	9.510394
2918.000000	9.605053
2916.000000	9.700337
2914.000000	9.789142
2912.000000	9.865554
2910.000000	9.926758
2908.000000	9.974191
2906.000000	10.012968
2904.000000	10.047156
2902.000000	10.079798
2900.000000	10.111623
2898.000000	10.142391
2896.000000	10.170598
2894.000000	10.195866
2892.000000	10.220991
2890.000000	10.244806
2888.000000	10.263393
2886.000000	10.279223
2884.000000	10.293885
2882.000000	10.301514
2880.000000	10.301541
2878.000000	10.297719
2876.000000	10.288542
2874.000000	10.272126
2872.000000	10.245641
2870.000000	10.205331
2868.000000	10.153407
2866.000000	10.093053
2864.000000	10.036773
2862.000000	10.004236
2860.000000	10.003633
2858.000000	10.027474
2856.000000	10.064659
2854.000000	10.107991
2852.000000	10.157388
2850.000000	10.218464
2848.000000	10.289004
2846.000000	10.357019
2844.000000	10.416887
2842.000000	10.466860
2840.000000	10.505650
2838.000000	10.535731
2836.000000	10.562284
2834.000000	10.585508
2832.000000	10.603221
2830.000000	10.618106
2828.000000	10.631754
2826.000000	10.644789
2824.000000	10.657562
2822.000000	10.669301
2820.000000	10.680021
2818.000000	10.690921
2816.000000	10.701390
2814.000000	10.711799
2812.000000	10.721873
2810.000000	10.729355
2808.000000	10.733994
2806.000000	10.740023
2804.000000	10.747432
2802.000000	10.753830
2800.000000	10.759189
2798.000000	10.764802
2796.000000	10.771491
2794.000000	10.777468
2792.000000	10.783271
2790.000000	10.789504
2788.000000	10.796799
2786.000000	10.806687
2784.000000	10.818443
2782.000000	10.828321
2780.000000	10.836201
2778.000000	10.843966
2776.000000	10.850892
2774.000000	10.857861
2772.000000	10.867179
2770.000000	10.876148
2768.000000	10.881407
2766.000000	10.884061
2764.000000	10.888273
2762.000000	10.895179
2760.000000	10.903116
2758.000000	10.910130
2756.000000	10.915367
2754.000000	10.920145
2752.000000	10.925383
2750.000000	10.929579
2748.000000	10.933629
2746.000000	10.937455
2744.000000	10.940446
2742.000000	10.944027
2740.000000	10.948602
2738.000000	10.952076
2736.000000	10.956211
2734.000000	10.960854
2732.000000	10.964129
2730.000000	10.966829
2728.000000	10.969905
2726.000000	10.973659
2724.000000	10.975723
2722.000000	10.977241
2720.000000	10.980419
2718.000000	10.982174
2716.000000	10.985328
2714.000000	10.987893
2712.000000	10.988251
2710.000000	10.989404
2708.000000	10.992679
2706.000000	10.996404
2704.000000	10.998498
2702.000000	10.999918
2700.000000	11.003307
2698.000000	11.008867
2696.000000	11.014087
2694.000000	11.018357
2692.000000	11.021476
2690.000000	11.023314
2688.000000	11.023814
2686.000000	11.025695
2684.000000	11.029994
2682.000000	11.033356
2680.000000	11.034853
2678.000000	11.036104
2676.000000	11.037313
2674.000000	11.038699
2672.000000	11.041702
2670.000000	11.043688
2668.000000	11.043630
2666.000000	11.043758
2664.000000	11.046167
2662.000000	11.048742
2660.000000	11.049607
2658.000000	11.049001
2656.000000	11.049672
2654.000000	11.051361
2652.000000	11.053661
2650.000000	11.056960
2648.000000	11.060441
2646.000000	11.062561
2644.000000	11.062264
2642.000000	11.061583
2640.000000	11.062972
2638.000000	11.064549
2636.000000	11.066845
2634.000000	11.068128
2632.000000	11.069008
2630.000000	11.069633
2628.000000	11.070082
2626.000000	11.071137
2624.000000	11.069615
2622.000000	11.069402
2620.000000	11.072311
2618.000000	11.074148
2616.000000	11.075218
2614.000000	11.075344
2612.000000	11.074898
2610.000000	11.074825
2608.000000	11.074252
2606.000000	11.072909
2604.000000	11.071694
2602.000000	11.070540
2600.000000	11.068964
2598.000000	11.067537
2596.000000	11.066778
2594.000000	11.065617
2592.000000	11.066282
2590.000000	11.069717
2588.000000	11.073420
2586.000000	11.075796
2584.000000	11.077530
2582.000000	11.081899
2580.000000	11.088401
2578.000000	11.092766
2576.000000	11.096941
2574.000000	11.101368
2572.000000	11.103290
2570.000000	11.104007
2568.000000	11.105139
2566.000000	11.106637
2564.000000	11.109302
2562.000000	11.111119
2560.000000	11.110162
2558.000000	11.108786
2556.000000	11.110670
2554.000000	11.113610
2552.000000	11.114957
2550.000000	11.116478
2548.000000	11.116113
2546.000000	11.114332
2544.000000	11.115940
2542.000000	11.118727
2540.000000	11.119668
2538.000000	11.118751
2536.000000	11.118435
2534.000000	11.119494
2532.000000	11.122047
2530.000000	11.123148
2528.000000	11.123794
2526.000000	11.123888
2524.000000	11.123162
2522.000000	11.124158
2520.000000	11.126353
2518.000000	11.127405
2516.000000	11.126814
2514.000000	11.126113
2512.000000	11.126275
2510.000000	11.125858
2508.000000	11.126790
2506.000000	11.127859
2504.000000	11.126886
2502.000000	11.125367
2500.000000	11.126049
2498.000000	11.127845
2496.000000	11.127169
2494.000000	11.125866
2492.000000	11.125641
2490.000000	11.125316
2488.000000	11.125746
2486.000000	11.126380
2484.000000	11.127489
2482.000000	11.127888
2480.000000	11.127508
2478.000000	11.125563
2476.000000	11.122249
2474.000000	11.120290
2472.000000	11.119410
2470.000000	11.117841
2468.000000	11.115574
2466.000000	11.112807
2464.000000	11.110990
2462.000000	11.108972
2460.000000	11.105976
2458.000000	11.103513
2456.000000	11.102437
2454.000000	11.099771
2452.000000	11.096681
2450.000000	11.094685
2448.000000	11.094620
2446.000000	11.095055
2444.000000	11.093316
2442.000000	11.092302
2440.000000	11.091155
2438.000000	11.088901
2436.000000	11.086176
2434.000000	11.084528
2432.000000	11.084583
2430.000000	11.083148
2428.000000	11.080907
2426.000000	11.077534
2424.000000	11.076206
2422.000000	11.077550
2420.000000	11.078424
2418.000000	11.079866
2416.000000	11.082633
2414.000000	11.085272
2412.000000	11.087555
2410.000000	11.091404
2408.000000	11.096899
2406.000000	11.103722
2404.000000	11.109542
2402.000000	11.112693
2400.000000	11.114720
2398.000000	11.118160
2396.000000	11.123088
2394.000000	11.126962
2392.000000	11.129065
2390.000000	11.131168
2388.000000	11.134092
2386.000000	11.136000
2384.000000	11.136527
2382.000000	11.134551
2380.000000	11.128176
2378.000000	11.117281
2376.000000	11.102565
2374.000000	11.085377
2372.000000	11.063789
2370.000000	11.039141
2368.000000	11.016633
2366.000000	10.999759
2364.000000	10.989053
2362.000000	10.985889
2360.000000	10.990351
2358.000000	11.003468
2356.000000	11.025082
2354.000000	11.051844
2352.000000	11.080342
2350.000000	11.099806
2348.000000	11.094750
2346.000000	11.068646
2344.000000	11.039521
2342.000000	11.014627
2340.000000	10.999032
2338.000000	10.998220
2336.000000	11.007124
2334.000000	11.015218
2332.000000	11.020722
2330.000000	11.027109
2328.000000	11.034700
2326.000000	11.041510
2324.000000	11.049706
2322.000000	11.059628
2320.000000	11.069055
2318.000000	11.076658
2316.000000	11.082088
2314.000000	11.088205
2312.000000	11.093626
2310.000000	11.096634
2308.000000	11.098373
2306.000000	11.100029
2304.000000	11.103060
2302.000000	11.106230
2300.000000	11.106547
2298.000000	11.105594
2296.000000	11.105585
2294.000000	11.102901
2292.000000	11.102235
2290.000000	11.104832
2288.000000	11.104659
2286.000000	11.102906
2284.000000	11.102647
2282.000000	11.100560
2280.000000	11.098566
2278.000000	11.096015
2276.000000	11.093923
2274.000000	11.092028
2272.000000	11.089222
2270.000000	11.088350
2268.000000	11.088545
2266.000000	11.086049
2264.000000	11.084133
2262.000000	11.083138
2260.000000	11.080081
2258.000000	11.079049
2256.000000	11.079703
2254.000000	11.078169
2252.000000	11.076287
2250.000000	11.075804
2248.000000	11.076561
2246.000000	11.077787
2244.000000	11.078159
2242.000000	11.078377
2240.000000	11.079383
2238.000000	11.081064
2236.000000	11.081886
2234.000000	11.081966
2232.000000	11.083257
2230.000000	11.084255
2228.000000	11.084140
2226.000000	11.083209
2224.000000	11.084173
2222.000000	11.087254
2220.000000	11.089565
2218.000000	11.089990
2216.000000	11.089246
2214.000000	11.090301
2212.000000	11.092732
2210.000000	11.093948
2208.000000	11.094020
2206.000000	11.093358
2204.000000	11.093037
2202.000000	11.092893
2200.000000	11.093470
2198.000000	11.096262
2196.000000	11.099664
2194.000000	11.099689
2192.000000	11.099566
2190.000000	11.100443
2188.000000	11.102355
2186.000000	11.104246
2184.000000	11.106393
2182.000000	11.107240
2180.000000	11.106631
2178.000000	11.106402
2176.000000	11.105824
2174.000000	11.106183
2172.000000	11.105675
2170.000000	11.104745
2168.000000	11.108794
2166.000000	11.114086
2164.000000	11.117327
2162.000000	11.120292
2160.000000	11.120238
2158.000000	11.119526
2156.000000	11.121070
2154.000000	11.122587
2152.000000	11.124149
2150.000000	11.125979
2148.000000	11.127957
2146.000000	11.128739
2144.000000	11.131849
2142.000000	11.135668
2140.000000	11.136611
2138.000000	11.137530
2136.000000	11.139106
2134.000000	11.139684
2132.000000	11.142849
2130.000000	11.147004
2128.000000	11.149264
2126.000000	11.151364
2124.000000	11.155318
2122.000000	11.158836
2120.000000	11.160660
2118.000000	11.161750
2116.000000	11.163435
2114.000000	11.168811
2112.000000	11.175597
2110.000000	11.180552
2108.000000	11.182405
2106.000000	11.184023
2104.000000	11.189374
2102.000000	11.194121
2100.000000	11.197617
2098.000000	11.201656
2096.000000	11.205458
2094.000000	11.209022
2092.000000	11.214060
2090.000000	11.219723
2088.000000	11.224552
2086.000000	11.229162
2084.000000	11.234265
2082.000000	11.238015
2080.000000	11.243467
2078.000000	11.248734
2076.000000	11.252785
2074.000000	11.256797
2072.000000	11.262978
2070.000000	11.269526
2068.000000	11.274294
2066.000000	11.279553
2064.000000	11.285629
2062.000000	11.289561
2060.000000	11.295090
2058.000000	11.300922
2056.000000	11.305588
2054.000000	11.309198
2052.000000	11.314710
2050.000000	11.320346
2048.000000	11.325254
2046.000000	11.330657
2044.000000	11.335900
2042.000000	11.340516
2040.000000	11.346468
2038.000000	11.351545
2036.000000	11.356844
2034.000000	11.360737
2032.000000	11.362368
2030.000000	11.363928
2028.000000	11.369571
2026.000000	11.374781
2024.000000	11.378567
2022.000000	11.383045
2020.000000	11.387547
2018.000000	11.391217
2016.000000	11.395987
2014.000000	11.400690
2012.000000	11.404513
2010.000000	11.409922
2008.000000	11.414746
2006.000000	11.417615
2004.000000	11.420760
2002.000000	11.422970
2000.000000	11.425364
1998.000000	11.428490
1996.000000	11.430198
1994.000000	11.428786
1992.000000	11.429108
1990.000000	11.432610
1988.000000	11.435577
1986.000000	11.438948
1984.000000	11.441529
1982.000000	11.440941
1980.000000	11.439983
1978.000000	11.439421
1976.000000	11.439107
1974.000000	11.438559
1972.000000	11.437362
1970.000000	11.433534
1968.000000	11.429025
1966.000000	11.427290
1964.000000	11.426560
1962.000000	11.420043
1960.000000	11.407641
1958.000000	11.407476
1956.000000	11.416725
1954.000000	11.417836
1952.000000	11.414809
1950.000000	11.409758
1948.000000	11.406544
1946.000000	11.401809
1944.000000	11.393907
1942.000000	11.390809
1940.000000	11.393954
1938.000000	11.392475
1936.000000	11.389660
1934.000000	11.385725
1932.000000	11.381967
1930.000000	11.377647
1928.000000	11.373138
1926.000000	11.366382
1924.000000	11.358464
1922.000000	11.352571
1920.000000	11.340202
1918.000000	11.327515
1916.000000	11.331306
1914.000000	11.332302
1912.000000	11.325551
1910.000000	11.314205
1908.000000	11.306147
1906.000000	11.301859
1904.000000	11.295460
1902.000000	11.287527
1900.000000	11.281219
1898.000000	11.271636
1896.000000	11.261315
1894.000000	11.255226
1892.000000	11.247693
1890.000000	11.237981
1888.000000	11.239640
1886.000000	11.239011
1884.000000	11.236462
1882.000000	11.234881
1880.000000	11.230865
1878.000000	11.225013
1876.000000	11.219752
1874.000000	11.213827
1872.000000	11.201352
1870.000000	11.178988
1868.000000	11.175761
1866.000000	11.186382
1864.000000	11.189047
1862.000000	11.183854
1860.000000	11.179732
1858.000000	11.175048
1856.000000	11.170828
1854.000000	11.165647
1852.000000	11.158825
1850.000000	11.149508
1848.000000	11.136138
1846.000000	11.101516
1844.000000	11.081422
1842.000000	11.102870
1840.000000	11.113560
1838.000000	11.104739
1836.000000	11.094270
1834.000000	11.083434
1832.000000	11.060093
1830.000000	11.040376
1828.000000	11.040322
1826.000000	11.030701
1824.000000	11.027815
1822.000000	11.029442
1820.000000	11.021156
1818.000000	11.009314
1816.000000	11.000312
1814.000000	10.988091
1812.000000	10.970264
1810.000000	10.957025
1808.000000	10.949870
1806.000000	10.937276
1804.000000	10.917745
1802.000000	10.892980
1800.000000	10.878485
1798.000000	10.871733
1796.000000	10.851885
1794.000000	10.806215
1792.000000	10.782935
1790.000000	10.800027
1788.000000	10.803438
1786.000000	10.780530
1784.000000	10.763195
1782.000000	10.748451
1780.000000	10.734129
1778.000000	10.721698
1776.000000	10.691270
1774.000000	10.632053
1772.000000	10.605727
1770.000000	10.624227
1768.000000	10.627988
1766.000000	10.632650
1764.000000	10.613037
1762.000000	10.583192
1760.000000	10.576586
1758.000000	10.559203
1756.000000	10.541695
1754.000000	10.517014
1752.000000	10.463808
1750.000000	10.444093
1748.000000	10.445840
1746.000000	10.436236
1744.000000	10.415709
1742.000000	10.383956
1740.000000	10.355037
1738.000000	10.342582
1736.000000	10.274559
1734.000000	10.221406
1732.000000	10.276843
1730.000000	10.316826
1728.000000	10.320738
1726.000000	10.314953
1724.000000	10.304804
1722.000000	10.288230
1720.000000	10.224722
1718.000000	10.148231
1716.000000	10.165707
1714.000000	10.212123
1712.000000	10.228306
1710.000000	10.216222
1708.000000	10.189374
1706.000000	10.159248
1704.000000	10.139998
1702.000000	10.063828
1700.000000	10.017687
1698.000000	10.032149
1696.000000	10.022109
1694.000000	10.087429
1692.000000	10.133694
1690.000000	10.125919
1688.000000	10.091052
1686.000000	9.989781
1684.000000	9.962129
1682.000000	10.045750
1680.000000	10.082571
1678.000000	10.063707
1676.000000	10.020700
1674.000000	10.019874
1672.000000	10.016006
1670.000000	9.986189
1668.000000	9.998824
1666.000000	10.013287
1664.000000	9.986632
1662.000000	9.974714
1660.000000	9.983462
1658.000000	9.968451
1656.000000	9.879010
1654.000000	9.731295
1652.000000	9.752772
1650.000000	9.857278
1648.000000	9.834640
1646.000000	9.813673
1644.000000	9.853598
1642.000000	9.868646
1640.000000	9.845254
1638.000000	9.782954
1636.000000	9.717204
1634.000000	9.743748
1632.000000	9.777890
1630.000000	9.755790
1628.000000	9.717599
1626.000000	9.677169
1624.000000	9.621994
1622.000000	9.583646
1620.000000	9.538119
1618.000000	9.446452
1616.000000	9.401051
1614.000000	9.399117
1612.000000	9.342969
1610.000000	9.277556
1608.000000	9.247556
1606.000000	9.253271
1604.000000	9.274894
1602.000000	9.299283
1600.000000	9.321848
1598.000000	9.343788
1596.000000	9.360788
1594.000000	9.373411
1592.000000	9.377840
1590.000000	9.375082
1588.000000	9.369396
1586.000000	9.361845
1584.000000	9.352588
1582.000000	9.346044
1580.000000	9.331912
1578.000000	9.271429
1576.000000	9.235161
1574.000000	9.287878
1572.000000	9.293546
1570.000000	9.257888
1568.000000	9.256119
1566.000000	9.250771
1564.000000	9.219366
1562.000000	9.125380
1560.000000	8.989752
1558.000000	8.999530
1556.000000	9.093020
1554.000000	9.144682
1552.000000	9.186222
1550.000000	9.213039
1548.000000	9.230121
1546.000000	9.225097
1544.000000	9.203616
1542.000000	9.158135
1540.000000	9.142857
1538.000000	9.238766
1536.000000	9.318795
1534.000000	9.320821
1532.000000	9.347998
1530.000000	9.371077
1528.000000	9.356467
1526.000000	9.335288
1524.000000	9.306717
1522.000000	9.256897
1520.000000	9.264427
1518.000000	9.279777
1516.000000	9.268281
1514.000000	9.257393
1512.000000	9.237330
1510.000000	9.190150
1508.000000	9.080577
1506.000000	9.017880
1504.000000	9.021295
1502.000000	8.912359
1500.000000	8.647634
1498.000000	8.305137
1496.000000	8.051534
1494.000000	8.019739
1492.000000	8.144203
1490.000000	8.335968
1488.000000	8.537723
1486.000000	8.697489
1484.000000	8.798866
1482.000000	8.849369
1480.000000	8.874209
1478.000000	8.868696
1476.000000	8.837021
1474.000000	8.788858
1472.000000	8.772377
1470.000000	8.788757
1468.000000	8.765448
1466.000000	8.706448
1464.000000	8.668137
1462.000000	8.636256
1460.000000	8.539060
1458.000000	8.379478
1456.000000	8.275621
1454.000000	8.229141
1452.000000	8.177556
1450.000000	8.192541
1448.000000	8.284799
1446.000000	8.384933
1444.000000	8.434231
1442.000000	8.446053
1440.000000	8.434515
1438.000000	8.400117
1436.000000	8.403768
1434.000000	8.445380
1432.000000	8.451006
1430.000000	8.445789
1428.000000	8.450947
1426.000000	8.451498
1424.000000	8.440409
1422.000000	8.417942
1420.000000	8.372160
1418.000000	8.367613
1416.000000	8.378929
1414.000000	8.363446
1412.000000	8.327169
1410.000000	8.271067
1408.000000	8.189920
1406.000000	8.105155
1404.000000	8.060588
1402.000000	8.067696
1400.000000	8.096035
1398.000000	8.143627
1396.000000	8.184400
1394.000000	8.221731
1392.000000	8.257477
1390.000000	8.255742
1388.000000	8.223526
1386.000000	8.194636
1384.000000	8.184526
1382.000000	8.197514
1380.000000	8.209080
1378.000000	8.205513
1376.000000	8.190044
1374.000000	8.178369
1372.000000	8.175477
1370.000000	8.165860
1368.000000	8.152497
1366.000000	8.137171
1364.000000	8.114905
1362.000000	8.097269
1360.000000	8.089136
1358.000000	8.077386
1356.000000	8.058726
1354.000000	8.040112
1352.000000	8.017890
1350.000000	7.994550
1348.000000	7.972450
1346.000000	7.949829
1344.000000	7.924960
1342.000000	7.897672
1340.000000	7.873236
1338.000000	7.860662
1336.000000	7.854159
1334.000000	7.844878
1332.000000	7.829049
1330.000000	7.809285
1328.000000	7.785670
1326.000000	7.761300
1324.000000	7.735656
1322.000000	7.708696
1320.000000	7.679092
1318.000000	7.646907
1316.000000	7.614751
1314.000000	7.582682
1312.000000	7.550603
1310.000000	7.518629
1308.000000	7.485530
1306.000000	7.451759
1304.000000	7.417590
1302.000000	7.382700
1300.000000	7.345757
1298.000000	7.309256
1296.000000	7.273135
1294.000000	7.236933
1292.000000	7.197948
1290.000000	7.156329
1288.000000	7.111997
1286.000000	7.068843
1284.000000	7.026315
1282.000000	6.982375
1280.000000	6.933368
1278.000000	6.880767
1276.000000	6.822672
1274.000000	6.756848
1272.000000	6.675188
1270.000000	6.574701
1268.000000	6.449060
1266.000000	6.293928
1264.000000	6.133083
1262.000000	6.008454
1260.000000	5.951936
1258.000000	5.961615
1256.000000	6.005196
1254.000000	6.041659
1252.000000	6.048392
1250.000000	6.026983
1248.000000	5.986816
1246.000000	5.937214
1244.000000	5.884220
1242.000000	5.832247
1240.000000	5.780215
1238.000000	5.728108
1236.000000	5.676451
1234.000000	5.627523
1232.000000	5.578753
1230.000000	5.530570
1228.000000	5.482974
1226.000000	5.435514
1224.000000	5.386417
1222.000000	5.336450
1220.000000	5.282961
1218.000000	5.227970
1216.000000	5.173521
1214.000000	5.119072
1212.000000	5.064940
1210.000000	5.016417
1208.000000	4.972920
1206.000000	4.931295
1204.000000	4.889593
1202.000000	4.847112
1200.000000	4.803751
1198.000000	4.760519
1196.000000	4.718020
1194.000000	4.674245
1192.000000	4.628701
1190.000000	4.582007
1188.000000	4.533695
1186.000000	4.481834
1184.000000	4.417569
1182.000000	4.339683
1180.000000	4.278732
1178.000000	4.249953
1176.000000	4.224160
1174.000000	4.184907
1172.000000	4.138446
1170.000000	4.088659
1168.000000	4.038074
1166.000000	3.989056
1164.000000	3.936587
1162.000000	3.883395
1160.000000	3.834587
1158.000000	3.789131
1156.000000	3.744941
1154.000000	3.700297
1152.000000	3.654160
1150.000000	3.610402
1148.000000	3.564011
1146.000000	3.515293
1144.000000	3.468346
1142.000000	3.429366
1140.000000	3.397321
1138.000000	3.364045
1136.000000	3.325865
1134.000000	3.284449
1132.000000	3.240499
1130.000000	3.193810
1128.000000	3.150300
1126.000000	3.107382
1124.000000	3.059893
1122.000000	3.013946
1120.000000	2.967350
1118.000000	2.916120
1116.000000	2.864762
1114.000000	2.814736
1112.000000	2.766139
1110.000000	2.716661
1108.000000	2.666931
1106.000000	2.619150
1104.000000	2.572488
1102.000000	2.530038
1100.000000	2.487807
1098.000000	2.444044
1096.000000	2.403665
1094.000000	2.364274
1092.000000	2.325753
1090.000000	2.290668
1088.000000	2.257898
1086.000000	2.226106
1084.000000	2.192837
1082.000000	2.157423
1080.000000	2.125264
1078.000000	2.096121
1076.000000	2.069410
1074.000000	2.046935
1072.000000	2.024796
1070.000000	2.004129
1068.000000	1.984845
1066.000000	1.963341
1064.000000	1.940075
1062.000000	1.917399
1060.000000	1.894024
1058.000000	1.864264
1056.000000	1.824488
1054.000000	1.772293
1052.000000	1.720090
1050.000000	1.691675
1048.000000	1.690244
1046.000000	1.701356
1044.000000	1.703636
1042.000000	1.694045
1040.000000	1.676279
1038.000000	1.654296
1036.000000	1.631314
1034.000000	1.606832
1032.000000	1.581363
1030.000000	1.554390
1028.000000	1.526435
1026.000000	1.498852
1024.000000	1.469053
1022.000000	1.438366
1020.000000	1.410237
1018.000000	1.383662
1016.000000	1.361151
1014.000000	1.341429
1012.000000	1.322443
1010.000000	1.307051
1008.000000	1.291606
1006.000000	1.272758
1004.000000	1.251262
1002.000000	1.227555
1000.000000	1.203685
