PE IR       SUBTECH     SPECTRUM    ASCII       PEDS        4.00        
   -1
TE109A_061_80K_after_125K_SB.ASC
20/04/21
18:19:12.00
20/04/21
18:19:12.00
Administrator
TE109A, Tuesday, April 21 2020, 061.
1000.000000
#HDR
-1
-1
#GR
cm-1
EGY
1.0
0.0
6000.000000
-2.000000
2501
8
10.969348
1.152920
#DATA
6000.000000	1.871486
5998.000000	1.873284
5996.000000	1.876763
5994.000000	1.880979
5992.000000	1.884571
5990.000000	1.887626
5988.000000	1.890523
5986.000000	1.893412
5984.000000	1.897374
5982.000000	1.901244
5980.000000	1.905755
5978.000000	1.910027
5976.000000	1.914341
5974.000000	1.919188
5972.000000	1.923920
5970.000000	1.928357
5968.000000	1.932758
5966.000000	1.937213
5964.000000	1.940664
5962.000000	1.943016
5960.000000	1.945516
5958.000000	1.948878
5956.000000	1.954258
5954.000000	1.959986
5952.000000	1.964245
5950.000000	1.967278
5948.000000	1.969616
5946.000000	1.972982
5944.000000	1.978025
5942.000000	1.982599
5940.000000	1.986834
5938.000000	1.990491
5936.000000	1.994916
5934.000000	1.999381
5932.000000	2.002502
5930.000000	2.005943
5928.000000	2.010879
5926.000000	2.016869
5924.000000	2.021735
5922.000000	2.024944
5920.000000	2.027441
5918.000000	2.032137
5916.000000	2.036691
5914.000000	2.040805
5912.000000	2.044105
5910.000000	2.046328
5908.000000	2.051188
5906.000000	2.055882
5904.000000	2.059998
5902.000000	2.063243
5900.000000	2.066581
5898.000000	2.071907
5896.000000	2.077086
5894.000000	2.081690
5892.000000	2.085303
5890.000000	2.088751
5888.000000	2.092660
5886.000000	2.096702
5884.000000	2.099974
5882.000000	2.103787
5880.000000	2.107420
5878.000000	2.112667
5876.000000	2.118230
5874.000000	2.123663
5872.000000	2.128390
5870.000000	2.131507
5868.000000	2.135027
5866.000000	2.139827
5864.000000	2.144744
5862.000000	2.147781
5860.000000	2.149788
5858.000000	2.153681
5856.000000	2.159994
5854.000000	2.165882
5852.000000	2.169664
5850.000000	2.173028
5848.000000	2.177386
5846.000000	2.183271
5844.000000	2.189664
5842.000000	2.196206
5840.000000	2.201399
5838.000000	2.205197
5836.000000	2.207296
5834.000000	2.210219
5832.000000	2.213940
5830.000000	2.218209
5828.000000	2.223075
5826.000000	2.228221
5824.000000	2.235052
5822.000000	2.242587
5820.000000	2.248076
5818.000000	2.251731
5816.000000	2.253900
5814.000000	2.258286
5812.000000	2.263741
5810.000000	2.268166
5808.000000	2.270457
5806.000000	2.272587
5804.000000	2.276527
5802.000000	2.282835
5800.000000	2.289272
5798.000000	2.295123
5796.000000	2.299846
5794.000000	2.304309
5792.000000	2.309202
5790.000000	2.314333
5788.000000	2.319416
5786.000000	2.324263
5784.000000	2.328515
5782.000000	2.332164
5780.000000	2.335387
5778.000000	2.338298
5776.000000	2.342121
5774.000000	2.348156
5772.000000	2.354994
5770.000000	2.361895
5768.000000	2.366395
5766.000000	2.370975
5764.000000	2.377068
5762.000000	2.382036
5760.000000	2.385626
5758.000000	2.389104
5756.000000	2.394147
5754.000000	2.399596
5752.000000	2.404636
5750.000000	2.409719
5748.000000	2.415789
5746.000000	2.421510
5744.000000	2.426456
5742.000000	2.430403
5740.000000	2.434108
5738.000000	2.437146
5736.000000	2.442643
5734.000000	2.449176
5732.000000	2.454608
5730.000000	2.458886
5728.000000	2.462569
5726.000000	2.467505
5724.000000	2.472025
5722.000000	2.475938
5720.000000	2.479973
5718.000000	2.483738
5716.000000	2.487715
5714.000000	2.493261
5712.000000	2.500101
5710.000000	2.506665
5708.000000	2.511280
5706.000000	2.516094
5704.000000	2.521195
5702.000000	2.526104
5700.000000	2.530569
5698.000000	2.534512
5696.000000	2.539123
5694.000000	2.544216
5692.000000	2.550493
5690.000000	2.557269
5688.000000	2.562149
5686.000000	2.564913
5684.000000	2.568006
5682.000000	2.573298
5680.000000	2.580385
5678.000000	2.586741
5676.000000	2.591614
5674.000000	2.596605
5672.000000	2.601503
5670.000000	2.607440
5668.000000	2.613852
5666.000000	2.618934
5664.000000	2.621628
5662.000000	2.625164
5660.000000	2.630922
5658.000000	2.636774
5656.000000	2.640490
5654.000000	2.644818
5652.000000	2.651710
5650.000000	2.659559
5648.000000	2.666094
5646.000000	2.671164
5644.000000	2.676212
5642.000000	2.681176
5640.000000	2.685980
5638.000000	2.690243
5636.000000	2.694308
5634.000000	2.700460
5632.000000	2.706819
5630.000000	2.712485
5628.000000	2.717773
5626.000000	2.724164
5624.000000	2.731585
5622.000000	2.737728
5620.000000	2.741988
5618.000000	2.744710
5616.000000	2.748915
5614.000000	2.753973
5612.000000	2.759401
5610.000000	2.763511
5608.000000	2.767524
5606.000000	2.772268
5604.000000	2.777328
5602.000000	2.783392
5600.000000	2.788769
5598.000000	2.794297
5596.000000	2.799018
5594.000000	2.805056
5592.000000	2.810748
5590.000000	2.815791
5588.000000	2.821309
5586.000000	2.828451
5584.000000	2.833997
5582.000000	2.839027
5580.000000	2.843784
5578.000000	2.849370
5576.000000	2.854565
5574.000000	2.859659
5572.000000	2.866146
5570.000000	2.873597
5568.000000	2.879472
5566.000000	2.883041
5564.000000	2.886477
5562.000000	2.891320
5560.000000	2.898222
5558.000000	2.905129
5556.000000	2.910698
5554.000000	2.915088
5552.000000	2.919368
5550.000000	2.925632
5548.000000	2.932629
5546.000000	2.938016
5544.000000	2.942497
5542.000000	2.947646
5540.000000	2.953986
5538.000000	2.960465
5536.000000	2.966239
5534.000000	2.971031
5532.000000	2.976243
5530.000000	2.982845
5528.000000	2.988150
5526.000000	2.991594
5524.000000	2.997142
5522.000000	3.004148
5520.000000	3.009477
5518.000000	3.012727
5516.000000	3.017319
5514.000000	3.023860
5512.000000	3.028550
5510.000000	3.032121
5508.000000	3.036316
5506.000000	3.042483
5504.000000	3.049958
5502.000000	3.056456
5500.000000	3.062363
5498.000000	3.067716
5496.000000	3.073573
5494.000000	3.078622
5492.000000	3.083319
5490.000000	3.088935
5488.000000	3.094952
5486.000000	3.101003
5484.000000	3.106961
5482.000000	3.113593
5480.000000	3.120354
5478.000000	3.124884
5476.000000	3.128109
5474.000000	3.133770
5472.000000	3.141722
5470.000000	3.148900
5468.000000	3.154133
5466.000000	3.159101
5464.000000	3.164379
5462.000000	3.168822
5460.000000	3.174414
5458.000000	3.182215
5456.000000	3.190895
5454.000000	3.197198
5452.000000	3.201855
5450.000000	3.204575
5448.000000	3.208089
5446.000000	3.212868
5444.000000	3.218930
5442.000000	3.225469
5440.000000	3.231711
5438.000000	3.237047
5436.000000	3.242270
5434.000000	3.247014
5432.000000	3.252020
5430.000000	3.257644
5428.000000	3.264240
5426.000000	3.272791
5424.000000	3.279265
5422.000000	3.284094
5420.000000	3.287388
5418.000000	3.290839
5416.000000	3.294606
5414.000000	3.299376
5412.000000	3.306271
5410.000000	3.314124
5408.000000	3.322458
5406.000000	3.329702
5404.000000	3.335091
5402.000000	3.338754
5400.000000	3.342818
5398.000000	3.346762
5396.000000	3.351288
5394.000000	3.357017
5392.000000	3.365298
5390.000000	3.373255
5388.000000	3.379218
5386.000000	3.385440
5384.000000	3.391710
5382.000000	3.399067
5380.000000	3.404770
5378.000000	3.408941
5376.000000	3.411939
5374.000000	3.416325
5372.000000	3.422546
5370.000000	3.430568
5368.000000	3.437672
5366.000000	3.444215
5364.000000	3.450215
5362.000000	3.456691
5360.000000	3.462644
5358.000000	3.467031
5356.000000	3.471340
5354.000000	3.476099
5352.000000	3.482192
5350.000000	3.488991
5348.000000	3.494455
5346.000000	3.498872
5344.000000	3.504420
5342.000000	3.510992
5340.000000	3.517161
5338.000000	3.523529
5336.000000	3.531047
5334.000000	3.538115
5332.000000	3.541595
5330.000000	3.544099
5328.000000	3.548206
5326.000000	3.555578
5324.000000	3.563491
5322.000000	3.569602
5320.000000	3.574768
5318.000000	3.580211
5316.000000	3.586046
5314.000000	3.591549
5312.000000	3.596310
5310.000000	3.600691
5308.000000	3.606715
5306.000000	3.613099
5304.000000	3.619288
5302.000000	3.624157
5300.000000	3.628802
5298.000000	3.633655
5296.000000	3.638731
5294.000000	3.644118
5292.000000	3.650363
5290.000000	3.656683
5288.000000	3.662139
5286.000000	3.666819
5284.000000	3.672152
5282.000000	3.678369
5280.000000	3.684827
5278.000000	3.691677
5276.000000	3.697191
5274.000000	3.701014
5272.000000	3.704880
5270.000000	3.710383
5268.000000	3.716096
5266.000000	3.722103
5264.000000	3.729288
5262.000000	3.735824
5260.000000	3.741534
5258.000000	3.745650
5256.000000	3.749511
5254.000000	3.755333
5252.000000	3.762229
5250.000000	3.767550
5248.000000	3.771969
5246.000000	3.777888
5244.000000	3.784228
5242.000000	3.789395
5240.000000	3.795642
5238.000000	3.803006
5236.000000	3.809460
5234.000000	3.814051
5232.000000	3.817677
5230.000000	3.820780
5228.000000	3.823805
5226.000000	3.829211
5224.000000	3.835216
5222.000000	3.840383
5220.000000	3.844380
5218.000000	3.850458
5216.000000	3.856828
5214.000000	3.862219
5212.000000	3.866911
5210.000000	3.871194
5208.000000	3.873924
5206.000000	3.877417
5204.000000	3.883812
5202.000000	3.891142
5200.000000	3.896579
5198.000000	3.901353
5196.000000	3.906301
5194.000000	3.912722
5192.000000	3.918881
5190.000000	3.923345
5188.000000	3.925894
5186.000000	3.929691
5184.000000	3.936118
5182.000000	3.943373
5180.000000	3.949100
5178.000000	3.953347
5176.000000	3.957791
5174.000000	3.963195
5172.000000	3.969820
5170.000000	3.976290
5168.000000	3.982499
5166.000000	3.987003
5164.000000	3.990307
5162.000000	3.994437
5160.000000	4.000134
5158.000000	4.006074
5156.000000	4.010541
5154.000000	4.013889
5152.000000	4.018124
5150.000000	4.023570
5148.000000	4.028647
5146.000000	4.033053
5144.000000	4.037349
5142.000000	4.042176
5140.000000	4.047267
5138.000000	4.053138
5136.000000	4.058675
5134.000000	4.063629
5132.000000	4.067854
5130.000000	4.072888
5128.000000	4.077875
5126.000000	4.082375
5124.000000	4.086977
5122.000000	4.091823
5120.000000	4.095898
5118.000000	4.099941
5116.000000	4.106702
5114.000000	4.114225
5112.000000	4.120078
5110.000000	4.124540
5108.000000	4.129174
5106.000000	4.134148
5104.000000	4.140147
5102.000000	4.147317
5100.000000	4.154321
5098.000000	4.161267
5096.000000	4.165996
5094.000000	4.168334
5092.000000	4.171284
5090.000000	4.177068
5088.000000	4.184096
5086.000000	4.191059
5084.000000	4.198901
5082.000000	4.205080
5080.000000	4.209038
5078.000000	4.213009
5076.000000	4.219262
5074.000000	4.225274
5072.000000	4.230257
5070.000000	4.235896
5068.000000	4.243384
5066.000000	4.250276
5064.000000	4.254733
5062.000000	4.259204
5060.000000	4.265040
5058.000000	4.272012
5056.000000	4.278492
5054.000000	4.284923
5052.000000	4.291528
5050.000000	4.297460
5048.000000	4.302290
5046.000000	4.307762
5044.000000	4.312980
5042.000000	4.317728
5040.000000	4.323191
5038.000000	4.330321
5036.000000	4.337271
5034.000000	4.342738
5032.000000	4.348856
5030.000000	4.354884
5028.000000	4.360638
5026.000000	4.366263
5024.000000	4.371610
5022.000000	4.377066
5020.000000	4.383882
5018.000000	4.391130
5016.000000	4.397545
5014.000000	4.402644
5012.000000	4.407613
5010.000000	4.412765
5008.000000	4.419263
5006.000000	4.426015
5004.000000	4.431144
5002.000000	4.436138
5000.000000	4.442906
4998.000000	4.451055
4996.000000	4.457456
4994.000000	4.463445
4992.000000	4.470067
4990.000000	4.477075
4988.000000	4.484209
4986.000000	4.492145
4984.000000	4.499179
4982.000000	4.503361
4980.000000	4.508242
4978.000000	4.515226
4976.000000	4.523364
4974.000000	4.531220
4972.000000	4.537946
4970.000000	4.543433
4968.000000	4.549851
4966.000000	4.556413
4964.000000	4.562629
4962.000000	4.569161
4960.000000	4.575954
4958.000000	4.581378
4956.000000	4.587233
4954.000000	4.595094
4952.000000	4.602528
4950.000000	4.609061
4948.000000	4.615424
4946.000000	4.620779
4944.000000	4.623560
4942.000000	4.627349
4940.000000	4.634566
4938.000000	4.643272
4936.000000	4.650515
4934.000000	4.658640
4932.000000	4.667476
4930.000000	4.674635
4928.000000	4.680200
4926.000000	4.685940
4924.000000	4.692047
4922.000000	4.699238
4920.000000	4.707500
4918.000000	4.714341
4916.000000	4.719992
4914.000000	4.727392
4912.000000	4.735651
4910.000000	4.741175
4908.000000	4.745418
4906.000000	4.752368
4904.000000	4.761308
4902.000000	4.768938
4900.000000	4.775081
4898.000000	4.781448
4896.000000	4.787813
4894.000000	4.794293
4892.000000	4.801261
4890.000000	4.808174
4888.000000	4.815981
4886.000000	4.824951
4884.000000	4.832798
4882.000000	4.839335
4880.000000	4.846117
4878.000000	4.853215
4876.000000	4.860076
4874.000000	4.868260
4872.000000	4.877094
4870.000000	4.885037
4868.000000	4.892382
4866.000000	4.899740
4864.000000	4.907476
4862.000000	4.914723
4860.000000	4.920978
4858.000000	4.928254
4856.000000	4.936486
4854.000000	4.944699
4852.000000	4.951289
4850.000000	4.957385
4848.000000	4.963560
4846.000000	4.969815
4844.000000	4.976166
4842.000000	4.982637
4840.000000	4.990355
4838.000000	4.998148
4836.000000	5.006028
4834.000000	5.014563
4832.000000	5.022220
4830.000000	5.028612
4828.000000	5.036320
4826.000000	5.045016
4824.000000	5.051240
4822.000000	5.056512
4820.000000	5.064713
4818.000000	5.074383
4816.000000	5.082013
4814.000000	5.089039
4812.000000	5.096897
4810.000000	5.105920
4808.000000	5.114621
4806.000000	5.122581
4804.000000	5.129437
4802.000000	5.137474
4800.000000	5.145917
4798.000000	5.152945
4796.000000	5.159094
4794.000000	5.167128
4792.000000	5.175989
4790.000000	5.185246
4788.000000	5.194245
4786.000000	5.203249
4784.000000	5.212182
4782.000000	5.221382
4780.000000	5.229393
4778.000000	5.236764
4776.000000	5.244432
4774.000000	5.252858
4772.000000	5.261527
4770.000000	5.270871
4768.000000	5.279968
4766.000000	5.287821
4764.000000	5.294831
4762.000000	5.301739
4760.000000	5.309205
4758.000000	5.317982
4756.000000	5.327995
4754.000000	5.337387
4752.000000	5.345007
4750.000000	5.352621
4748.000000	5.361501
4746.000000	5.369416
4744.000000	5.375306
4742.000000	5.382520
4740.000000	5.392115
4738.000000	5.400834
4736.000000	5.407982
4734.000000	5.415323
4732.000000	5.423602
4730.000000	5.431969
4728.000000	5.440864
4726.000000	5.449693
4724.000000	5.457583
4722.000000	5.464538
4720.000000	5.470360
4718.000000	5.477138
4716.000000	5.486743
4714.000000	5.497754
4712.000000	5.506821
4710.000000	5.515881
4708.000000	5.524554
4706.000000	5.532024
4704.000000	5.539597
4702.000000	5.548883
4700.000000	5.558330
4698.000000	5.566475
4696.000000	5.573089
4694.000000	5.580758
4692.000000	5.589952
4690.000000	5.597717
4688.000000	5.604826
4686.000000	5.614643
4684.000000	5.623772
4682.000000	5.629094
4680.000000	5.635426
4678.000000	5.645126
4676.000000	5.655386
4674.000000	5.664829
4672.000000	5.673091
4670.000000	5.679991
4668.000000	5.686918
4666.000000	5.694937
4664.000000	5.702926
4662.000000	5.710886
4660.000000	5.719588
4658.000000	5.727686
4656.000000	5.733529
4654.000000	5.739620
4652.000000	5.748233
4650.000000	5.757009
4648.000000	5.765055
4646.000000	5.773618
4644.000000	5.781591
4642.000000	5.788032
4640.000000	5.794514
4638.000000	5.802908
4636.000000	5.812198
4634.000000	5.820206
4632.000000	5.826829
4630.000000	5.833612
4628.000000	5.840806
4626.000000	5.847250
4624.000000	5.854519
4622.000000	5.863402
4620.000000	5.871365
4618.000000	5.877462
4616.000000	5.884757
4614.000000	5.894292
4612.000000	5.902755
4610.000000	5.910097
4608.000000	5.918322
4606.000000	5.927216
4604.000000	5.935593
4602.000000	5.944561
4600.000000	5.952374
4598.000000	5.958460
4596.000000	5.965403
4594.000000	5.974878
4592.000000	5.984660
4590.000000	5.993095
4588.000000	6.000412
4586.000000	6.009093
4584.000000	6.018600
4582.000000	6.026879
4580.000000	6.034640
4578.000000	6.043040
4576.000000	6.049759
4574.000000	6.055635
4572.000000	6.063438
4570.000000	6.071024
4568.000000	6.077745
4566.000000	6.086412
4564.000000	6.096168
4562.000000	6.103473
4560.000000	6.109707
4558.000000	6.117509
4556.000000	6.126504
4554.000000	6.134813
4552.000000	6.142783
4550.000000	6.149989
4548.000000	6.155998
4546.000000	6.162756
4544.000000	6.171655
4542.000000	6.180315
4540.000000	6.187114
4538.000000	6.193592
4536.000000	6.200427
4534.000000	6.208198
4532.000000	6.217334
4530.000000	6.226927
4528.000000	6.234329
4526.000000	6.240743
4524.000000	6.247681
4522.000000	6.254571
4520.000000	6.262105
4518.000000	6.271217
4516.000000	6.279612
4514.000000	6.287428
4512.000000	6.296850
4510.000000	6.304759
4508.000000	6.310734
4506.000000	6.319813
4504.000000	6.330696
4502.000000	6.337633
4500.000000	6.343334
4498.000000	6.351877
4496.000000	6.360434
4494.000000	6.367645
4492.000000	6.376663
4490.000000	6.386117
4488.000000	6.392759
4486.000000	6.399228
4484.000000	6.407790
4482.000000	6.415879
4480.000000	6.423501
4478.000000	6.432191
4476.000000	6.439660
4474.000000	6.445974
4472.000000	6.453770
4470.000000	6.461964
4468.000000	6.468734
4466.000000	6.474419
4464.000000	6.482095
4462.000000	6.492455
4460.000000	6.501356
4458.000000	6.508367
4456.000000	6.516255
4454.000000	6.523293
4452.000000	6.529223
4450.000000	6.535475
4448.000000	6.541579
4446.000000	6.548373
4444.000000	6.556665
4442.000000	6.564815
4440.000000	6.572376
4438.000000	6.579288
4436.000000	6.586407
4434.000000	6.594498
4432.000000	6.602263
4430.000000	6.608844
4428.000000	6.615479
4426.000000	6.623107
4424.000000	6.630205
4422.000000	6.636408
4420.000000	6.643653
4418.000000	6.652889
4416.000000	6.661939
4414.000000	6.670806
4412.000000	6.679500
4410.000000	6.686336
4408.000000	6.692024
4406.000000	6.699723
4404.000000	6.708583
4402.000000	6.716437
4400.000000	6.723777
4398.000000	6.730498
4396.000000	6.736056
4394.000000	6.741859
4392.000000	6.749797
4390.000000	6.759447
4388.000000	6.767705
4386.000000	6.774056
4384.000000	6.780362
4382.000000	6.786915
4380.000000	6.793832
4378.000000	6.801354
4376.000000	6.807824
4374.000000	6.814285
4372.000000	6.821493
4370.000000	6.827247
4368.000000	6.831873
4366.000000	6.838462
4364.000000	6.845879
4362.000000	6.851673
4360.000000	6.857073
4358.000000	6.863247
4356.000000	6.870646
4354.000000	6.878942
4352.000000	6.886111
4350.000000	6.893232
4348.000000	6.902236
4346.000000	6.910625
4344.000000	6.916959
4342.000000	6.923233
4340.000000	6.930085
4338.000000	6.936886
4336.000000	6.943475
4334.000000	6.950517
4332.000000	6.958007
4330.000000	6.965668
4328.000000	6.971857
4326.000000	6.977443
4324.000000	6.984786
4322.000000	6.992326
4320.000000	6.998939
4318.000000	7.007319
4316.000000	7.016247
4314.000000	7.023734
4312.000000	7.029480
4310.000000	7.034567
4308.000000	7.041235
4306.000000	7.050443
4304.000000	7.060088
4302.000000	7.068069
4300.000000	7.075268
4298.000000	7.082695
4296.000000	7.089483
4294.000000	7.096765
4292.000000	7.104616
4290.000000	7.111058
4288.000000	7.117671
4286.000000	7.125377
4284.000000	7.132072
4282.000000	7.138081
4280.000000	7.145545
4278.000000	7.153248
4276.000000	7.159389
4274.000000	7.164716
4272.000000	7.169596
4270.000000	7.174951
4268.000000	7.182394
4266.000000	7.188935
4264.000000	7.193764
4262.000000	7.201061
4260.000000	7.209886
4258.000000	7.216788
4256.000000	7.222881
4254.000000	7.229917
4252.000000	7.237387
4250.000000	7.245645
4248.000000	7.253883
4246.000000	7.260143
4244.000000	7.265159
4242.000000	7.272337
4240.000000	7.279960
4238.000000	7.286649
4236.000000	7.294717
4234.000000	7.303114
4232.000000	7.309751
4230.000000	7.317010
4228.000000	7.325077
4226.000000	7.332437
4224.000000	7.337756
4222.000000	7.342765
4220.000000	7.350667
4218.000000	7.359881
4216.000000	7.368274
4214.000000	7.376392
4212.000000	7.384064
4210.000000	7.392025
4208.000000	7.399100
4206.000000	7.405225
4204.000000	7.413152
4202.000000	7.423155
4200.000000	7.432773
4198.000000	7.440898
4196.000000	7.448530
4194.000000	7.457475
4192.000000	7.465461
4190.000000	7.470745
4188.000000	7.476791
4186.000000	7.485506
4184.000000	7.494314
4182.000000	7.503336
4180.000000	7.512459
4178.000000	7.519213
4176.000000	7.524887
4174.000000	7.533964
4172.000000	7.543054
4170.000000	7.548168
4168.000000	7.553864
4166.000000	7.562548
4164.000000	7.571052
4162.000000	7.579073
4160.000000	7.586904
4158.000000	7.595227
4156.000000	7.603320
4154.000000	7.609659
4152.000000	7.615667
4150.000000	7.623026
4148.000000	7.630933
4146.000000	7.638391
4144.000000	7.646502
4142.000000	7.655907
4140.000000	7.664270
4138.000000	7.672023
4136.000000	7.680627
4134.000000	7.689038
4132.000000	7.697063
4130.000000	7.704601
4128.000000	7.711603
4126.000000	7.718982
4124.000000	7.727045
4122.000000	7.735494
4120.000000	7.742665
4118.000000	7.749058
4116.000000	7.756723
4114.000000	7.765958
4112.000000	7.775260
4110.000000	7.783564
4108.000000	7.791396
4106.000000	7.799316
4104.000000	7.807503
4102.000000	7.816110
4100.000000	7.823530
4098.000000	7.830038
4096.000000	7.837674
4094.000000	7.846505
4092.000000	7.855305
4090.000000	7.863537
4088.000000	7.871768
4086.000000	7.880806
4084.000000	7.889033
4082.000000	7.896139
4080.000000	7.904435
4078.000000	7.913637
4076.000000	7.921791
4074.000000	7.928805
4072.000000	7.934860
4070.000000	7.941550
4068.000000	7.950238
4066.000000	7.960064
4064.000000	7.969914
4062.000000	7.978404
4060.000000	7.984702
4058.000000	7.991137
4056.000000	7.998627
4054.000000	8.005990
4052.000000	8.013578
4050.000000	8.022235
4048.000000	8.030390
4046.000000	8.038110
4044.000000	8.046568
4042.000000	8.054177
4040.000000	8.060612
4038.000000	8.069405
4036.000000	8.078868
4034.000000	8.085633
4032.000000	8.092855
4030.000000	8.102517
4028.000000	8.111280
4026.000000	8.118664
4024.000000	8.127141
4022.000000	8.136356
4020.000000	8.144112
4018.000000	8.150710
4016.000000	8.158260
4014.000000	8.167226
4012.000000	8.176290
4010.000000	8.185926
4008.000000	8.194917
4006.000000	8.202774
4004.000000	8.212317
4002.000000	8.222219
4000.000000	8.229940
3998.000000	8.236951
3996.000000	8.244755
3994.000000	8.252917
3992.000000	8.261833
3990.000000	8.271382
3988.000000	8.279979
3986.000000	8.287514
3984.000000	8.295548
3982.000000	8.304496
3980.000000	8.312389
3978.000000	8.319366
3976.000000	8.326695
3974.000000	8.334120
3972.000000	8.341935
3970.000000	8.350590
3968.000000	8.359679
3966.000000	8.368419
3964.000000	8.376815
3962.000000	8.384825
3960.000000	8.391863
3958.000000	8.400339
3956.000000	8.411356
3954.000000	8.420036
3952.000000	8.424774
3950.000000	8.430393
3948.000000	8.439034
3946.000000	8.447711
3944.000000	8.454876
3942.000000	8.466145
3940.000000	8.480606
3938.000000	8.490213
3936.000000	8.494325
3934.000000	8.498756
3932.000000	8.509156
3930.000000	8.523113
3928.000000	8.532198
3926.000000	8.537302
3924.000000	8.545038
3922.000000	8.552935
3920.000000	8.556769
3918.000000	8.564413
3916.000000	8.581496
3914.000000	8.599892
3912.000000	8.613747
3910.000000	8.622747
3908.000000	8.620100
3906.000000	8.605880
3904.000000	8.598112
3902.000000	8.608404
3900.000000	8.631830
3898.000000	8.660829
3896.000000	8.680296
3894.000000	8.678929
3892.000000	8.677982
3890.000000	8.691371
3888.000000	8.693919
3886.000000	8.693598
3884.000000	8.711653
3882.000000	8.727767
3880.000000	8.741295
3878.000000	8.757648
3876.000000	8.762097
3874.000000	8.755693
3872.000000	8.742549
3870.000000	8.743997
3868.000000	8.766846
3866.000000	8.783144
3864.000000	8.796973
3862.000000	8.820268
3860.000000	8.839043
3858.000000	8.818038
3856.000000	8.747264
3854.000000	8.714873
3852.000000	8.777814
3850.000000	8.862061
3848.000000	8.903418
3846.000000	8.911284
3844.000000	8.907065
3842.000000	8.893115
3840.000000	8.866654
3838.000000	8.862903
3836.000000	8.899486
3834.000000	8.935914
3832.000000	8.957704
3830.000000	8.977464
3828.000000	8.991256
3826.000000	8.996372
3824.000000	8.983315
3822.000000	8.970253
3820.000000	8.979508
3818.000000	8.980125
3816.000000	8.991240
3814.000000	9.040121
3812.000000	9.075805
3810.000000	9.069090
3808.000000	9.053070
3806.000000	9.060033
3804.000000	9.055550
3802.000000	9.045582
3800.000000	9.076807
3798.000000	9.115276
3796.000000	9.137977
3794.000000	9.159210
3792.000000	9.174936
3790.000000	9.183814
3788.000000	9.187096
3786.000000	9.190302
3784.000000	9.197908
3782.000000	9.201354
3780.000000	9.204520
3778.000000	9.220048
3776.000000	9.237127
3774.000000	9.240816
3772.000000	9.233323
3770.000000	9.233150
3768.000000	9.246174
3766.000000	9.261490
3764.000000	9.273581
3762.000000	9.275088
3760.000000	9.272965
3758.000000	9.281446
3756.000000	9.276990
3754.000000	9.234361
3752.000000	9.194937
3750.000000	9.207683
3748.000000	9.227764
3746.000000	9.210703
3744.000000	9.234355
3742.000000	9.306626
3740.000000	9.331441
3738.000000	9.309479
3736.000000	9.299173
3734.000000	9.314207
3732.000000	9.344560
3730.000000	9.375317
3728.000000	9.386200
3726.000000	9.388406
3724.000000	9.395140
3722.000000	9.405107
3720.000000	9.417668
3718.000000	9.428716
3716.000000	9.423651
3714.000000	9.396364
3712.000000	9.384559
3710.000000	9.408835
3708.000000	9.439824
3706.000000	9.454082
3704.000000	9.451262
3702.000000	9.449552
3700.000000	9.458445
3698.000000	9.466597
3696.000000	9.466817
3694.000000	9.453016
3692.000000	9.418497
3690.000000	9.384815
3688.000000	9.399025
3686.000000	9.446791
3684.000000	9.470849
3682.000000	9.466537
3680.000000	9.442255
3678.000000	9.391611
3676.000000	9.359872
3674.000000	9.371769
3672.000000	9.371326
3670.000000	9.375613
3668.000000	9.412472
3666.000000	9.437595
3664.000000	9.437737
3662.000000	9.429898
3660.000000	9.412485
3658.000000	9.383327
3656.000000	9.368014
3654.000000	9.356981
3652.000000	9.312440
3650.000000	9.271050
3648.000000	9.281177
3646.000000	9.313823
3644.000000	9.326819
3642.000000	9.320588
3640.000000	9.308311
3638.000000	9.292289
3636.000000	9.272903
3634.000000	9.249390
3632.000000	9.203600
3630.000000	9.153505
3628.000000	9.154201
3626.000000	9.180443
3624.000000	9.178322
3622.000000	9.147070
3620.000000	9.116498
3618.000000	9.107571
3616.000000	9.100241
3614.000000	9.081156
3612.000000	9.058754
3610.000000	9.038453
3608.000000	9.030978
3606.000000	9.031773
3604.000000	9.024034
3602.000000	9.006519
3600.000000	8.987740
3598.000000	8.968929
3596.000000	8.951160
3594.000000	8.938788
3592.000000	8.921504
3590.000000	8.891988
3588.000000	8.870613
3586.000000	8.869759
3584.000000	8.873307
3582.000000	8.868826
3580.000000	8.857109
3578.000000	8.844058
3576.000000	8.833163
3574.000000	8.823449
3572.000000	8.809657
3570.000000	8.786793
3568.000000	8.767193
3566.000000	8.766692
3564.000000	8.771360
3562.000000	8.767411
3560.000000	8.761103
3558.000000	8.756938
3556.000000	8.750185
3554.000000	8.740222
3552.000000	8.732219
3550.000000	8.724718
3548.000000	8.716505
3546.000000	8.710800
3544.000000	8.708888
3542.000000	8.708790
3540.000000	8.704998
3538.000000	8.697042
3536.000000	8.691960
3534.000000	8.689023
3532.000000	8.681612
3530.000000	8.671008
3528.000000	8.662704
3526.000000	8.656059
3524.000000	8.648842
3522.000000	8.642858
3520.000000	8.635647
3518.000000	8.628630
3516.000000	8.623121
3514.000000	8.615272
3512.000000	8.605341
3510.000000	8.594492
3508.000000	8.584181
3506.000000	8.572780
3504.000000	8.559590
3502.000000	8.548378
3500.000000	8.540914
3498.000000	8.532945
3496.000000	8.521880
3494.000000	8.510404
3492.000000	8.498981
3490.000000	8.486203
3488.000000	8.473790
3486.000000	8.463627
3484.000000	8.454531
3482.000000	8.445551
3480.000000	8.438999
3478.000000	8.433080
3476.000000	8.424828
3474.000000	8.418086
3472.000000	8.413600
3470.000000	8.409643
3468.000000	8.406711
3466.000000	8.403999
3464.000000	8.401116
3462.000000	8.398991
3460.000000	8.398204
3458.000000	8.398372
3456.000000	8.396986
3454.000000	8.393250
3452.000000	8.388989
3450.000000	8.385439
3448.000000	8.383787
3446.000000	8.383203
3444.000000	8.382045
3442.000000	8.382134
3440.000000	8.386199
3438.000000	8.393107
3436.000000	8.401259
3434.000000	8.411384
3432.000000	8.422727
3430.000000	8.434151
3428.000000	8.446078
3426.000000	8.457265
3424.000000	8.466987
3422.000000	8.475928
3420.000000	8.485506
3418.000000	8.494037
3416.000000	8.500382
3414.000000	8.507024
3412.000000	8.512503
3410.000000	8.516013
3408.000000	8.520216
3406.000000	8.524229
3404.000000	8.527725
3402.000000	8.530160
3400.000000	8.532665
3398.000000	8.538274
3396.000000	8.546346
3394.000000	8.553035
3392.000000	8.559583
3390.000000	8.567488
3388.000000	8.573507
3386.000000	8.577848
3384.000000	8.582966
3382.000000	8.587160
3380.000000	8.590804
3378.000000	8.594808
3376.000000	8.598927
3374.000000	8.602365
3372.000000	8.605589
3370.000000	8.608158
3368.000000	8.611204
3366.000000	8.617102
3364.000000	8.622461
3362.000000	8.624875
3360.000000	8.626651
3358.000000	8.630817
3356.000000	8.635999
3354.000000	8.640130
3352.000000	8.642947
3350.000000	8.645867
3348.000000	8.649130
3346.000000	8.652103
3344.000000	8.654784
3342.000000	8.657864
3340.000000	8.661540
3338.000000	8.665446
3336.000000	8.670129
3334.000000	8.675187
3332.000000	8.678561
3330.000000	8.681952
3328.000000	8.686125
3326.000000	8.690639
3324.000000	8.693465
3322.000000	8.695723
3320.000000	8.698152
3318.000000	8.699384
3316.000000	8.701508
3314.000000	8.704084
3312.000000	8.706443
3310.000000	8.710092
3308.000000	8.713535
3306.000000	8.715542
3304.000000	8.716978
3302.000000	8.719530
3300.000000	8.723265
3298.000000	8.725269
3296.000000	8.725667
3294.000000	8.727930
3292.000000	8.731500
3290.000000	8.734946
3288.000000	8.739409
3286.000000	8.743598
3284.000000	8.746019
3282.000000	8.748628
3280.000000	8.751494
3278.000000	8.753563
3276.000000	8.755869
3274.000000	8.759113
3272.000000	8.763120
3270.000000	8.767258
3268.000000	8.770053
3266.000000	8.771984
3264.000000	8.775582
3262.000000	8.779878
3260.000000	8.783544
3258.000000	8.787312
3256.000000	8.790837
3254.000000	8.793153
3252.000000	8.796807
3250.000000	8.801282
3248.000000	8.803860
3246.000000	8.808164
3244.000000	8.814206
3242.000000	8.818102
3240.000000	8.821521
3238.000000	8.826506
3236.000000	8.830391
3234.000000	8.834774
3232.000000	8.840655
3230.000000	8.845466
3228.000000	8.848956
3226.000000	8.853070
3224.000000	8.858427
3222.000000	8.863907
3220.000000	8.868308
3218.000000	8.871458
3216.000000	8.874773
3214.000000	8.879767
3212.000000	8.884726
3210.000000	8.889346
3208.000000	8.894951
3206.000000	8.900759
3204.000000	8.907041
3202.000000	8.914441
3200.000000	8.920902
3198.000000	8.927411
3196.000000	8.935460
3194.000000	8.943062
3192.000000	8.949877
3190.000000	8.956331
3188.000000	8.963731
3186.000000	8.971526
3184.000000	8.978224
3182.000000	8.983978
3180.000000	8.989090
3178.000000	8.995675
3176.000000	9.005480
3174.000000	9.014739
3172.000000	9.020897
3170.000000	9.026153
3168.000000	9.033651
3166.000000	9.041994
3164.000000	9.049081
3162.000000	9.056271
3160.000000	9.064201
3158.000000	9.071688
3156.000000	9.078656
3154.000000	9.086978
3152.000000	9.095571
3150.000000	9.103357
3148.000000	9.110189
3146.000000	9.116160
3144.000000	9.123221
3142.000000	9.132329
3140.000000	9.139989
3138.000000	9.146927
3136.000000	9.153454
3134.000000	9.159197
3132.000000	9.163945
3130.000000	9.168728
3128.000000	9.175248
3126.000000	9.183251
3124.000000	9.190623
3122.000000	9.195573
3120.000000	9.199325
3118.000000	9.203231
3116.000000	9.207283
3114.000000	9.210690
3112.000000	9.215822
3110.000000	9.223072
3108.000000	9.229880
3106.000000	9.235133
3104.000000	9.240151
3102.000000	9.246441
3100.000000	9.253729
3098.000000	9.258992
3096.000000	9.264374
3094.000000	9.270344
3092.000000	9.276736
3090.000000	9.282895
3088.000000	9.287769
3086.000000	9.292840
3084.000000	9.298650
3082.000000	9.303519
3080.000000	9.307230
3078.000000	9.310081
3076.000000	9.313288
3074.000000	9.317187
3072.000000	9.318961
3070.000000	9.319044
3068.000000	9.320190
3066.000000	9.322178
3064.000000	9.325294
3062.000000	9.330460
3060.000000	9.337199
3058.000000	9.342953
3056.000000	9.348877
3054.000000	9.354974
3052.000000	9.361228
3050.000000	9.367651
3048.000000	9.372781
3046.000000	9.376639
3044.000000	9.382090
3042.000000	9.387141
3040.000000	9.390680
3038.000000	9.393968
3036.000000	9.394592
3034.000000	9.393454
3032.000000	9.393162
3030.000000	9.390747
3028.000000	9.383971
3026.000000	9.373228
3024.000000	9.361200
3022.000000	9.351055
3020.000000	9.345403
3018.000000	9.348663
3016.000000	9.366374
3014.000000	9.394831
3012.000000	9.426820
3010.000000	9.456104
3008.000000	9.477904
3006.000000	9.494105
3004.000000	9.507669
3002.000000	9.516393
3000.000000	9.521905
2998.000000	9.527969
2996.000000	9.532555
2994.000000	9.537368
2992.000000	9.541367
2990.000000	9.542626
2988.000000	9.541569
2986.000000	9.538388
2984.000000	9.533497
2982.000000	9.526035
2980.000000	9.514859
2978.000000	9.496983
2976.000000	9.471328
2974.000000	9.438749
2972.000000	9.398345
2970.000000	9.346506
2968.000000	9.288932
2966.000000	9.239107
2964.000000	9.205479
2962.000000	9.192990
2960.000000	9.202605
2958.000000	9.226374
2956.000000	9.254035
2954.000000	9.279047
2952.000000	9.298698
2950.000000	9.308928
2948.000000	9.306546
2946.000000	9.291621
2944.000000	9.264025
2942.000000	9.224381
2940.000000	9.175640
2938.000000	9.126080
2936.000000	9.081445
2934.000000	9.041930
2932.000000	9.004053
2930.000000	8.967327
2928.000000	8.937905
2926.000000	8.926964
2924.000000	8.945912
2922.000000	8.997845
2920.000000	9.074458
2918.000000	9.162567
2916.000000	9.253308
2914.000000	9.338529
2912.000000	9.410040
2910.000000	9.466666
2908.000000	9.512789
2906.000000	9.553152
2904.000000	9.588437
2902.000000	9.619648
2900.000000	9.649892
2898.000000	9.678345
2896.000000	9.704445
2894.000000	9.729999
2892.000000	9.756347
2890.000000	9.781390
2888.000000	9.800455
2886.000000	9.814620
2884.000000	9.825877
2882.000000	9.834014
2880.000000	9.837476
2878.000000	9.835316
2876.000000	9.827032
2874.000000	9.811188
2872.000000	9.786544
2870.000000	9.748723
2868.000000	9.697824
2866.000000	9.639875
2864.000000	9.588676
2862.000000	9.558593
2860.000000	9.556558
2858.000000	9.579912
2856.000000	9.616416
2854.000000	9.658193
2852.000000	9.706698
2850.000000	9.764304
2848.000000	9.829497
2846.000000	9.896024
2844.000000	9.954977
2842.000000	10.000849
2840.000000	10.037824
2838.000000	10.069304
2836.000000	10.094618
2834.000000	10.114745
2832.000000	10.133287
2830.000000	10.150360
2828.000000	10.165580
2826.000000	10.178379
2824.000000	10.190923
2822.000000	10.203465
2820.000000	10.214181
2818.000000	10.223528
2816.000000	10.232807
2814.000000	10.242270
2812.000000	10.252181
2810.000000	10.259709
2808.000000	10.265156
2806.000000	10.271648
2804.000000	10.279186
2802.000000	10.285329
2800.000000	10.288898
2798.000000	10.294285
2796.000000	10.301945
2794.000000	10.309677
2792.000000	10.316614
2790.000000	10.324168
2788.000000	10.332613
2786.000000	10.341463
2784.000000	10.350663
2782.000000	10.361520
2780.000000	10.371137
2778.000000	10.379615
2776.000000	10.388768
2774.000000	10.395908
2772.000000	10.400735
2770.000000	10.406714
2768.000000	10.414852
2766.000000	10.421605
2764.000000	10.426205
2762.000000	10.432453
2760.000000	10.440556
2758.000000	10.445907
2756.000000	10.448998
2754.000000	10.453098
2752.000000	10.458694
2750.000000	10.463901
2748.000000	10.468668
2746.000000	10.473071
2744.000000	10.476679
2742.000000	10.480330
2740.000000	10.483271
2738.000000	10.486935
2736.000000	10.491254
2734.000000	10.494114
2732.000000	10.497557
2730.000000	10.502510
2728.000000	10.505860
2726.000000	10.508562
2724.000000	10.511934
2722.000000	10.514694
2720.000000	10.517755
2718.000000	10.520590
2716.000000	10.522381
2714.000000	10.524778
2712.000000	10.529097
2710.000000	10.531746
2708.000000	10.531880
2706.000000	10.531557
2704.000000	10.533803
2702.000000	10.539024
2700.000000	10.543181
2698.000000	10.545890
2696.000000	10.548950
2694.000000	10.552783
2692.000000	10.556606
2690.000000	10.560367
2688.000000	10.563426
2686.000000	10.566886
2684.000000	10.571228
2682.000000	10.572938
2680.000000	10.573567
2678.000000	10.575293
2676.000000	10.577379
2674.000000	10.579508
2672.000000	10.580105
2670.000000	10.580203
2668.000000	10.581751
2666.000000	10.583548
2664.000000	10.585232
2662.000000	10.586727
2660.000000	10.587886
2658.000000	10.588777
2656.000000	10.590753
2654.000000	10.593342
2652.000000	10.595345
2650.000000	10.596451
2648.000000	10.597243
2646.000000	10.598183
2644.000000	10.600084
2642.000000	10.603380
2640.000000	10.605422
2638.000000	10.605008
2636.000000	10.605104
2634.000000	10.606509
2632.000000	10.608099
2630.000000	10.609290
2628.000000	10.608949
2626.000000	10.608507
2624.000000	10.611237
2622.000000	10.611745
2620.000000	10.610384
2618.000000	10.610981
2616.000000	10.611786
2614.000000	10.612303
2612.000000	10.612956
2610.000000	10.613424
2608.000000	10.613350
2606.000000	10.612581
2604.000000	10.612472
2602.000000	10.612592
2600.000000	10.610491
2598.000000	10.608704
2596.000000	10.608163
2594.000000	10.607529
2592.000000	10.608764
2590.000000	10.612209
2588.000000	10.613704
2586.000000	10.613900
2584.000000	10.616265
2582.000000	10.620617
2580.000000	10.625533
2578.000000	10.628502
2576.000000	10.631492
2574.000000	10.635015
2572.000000	10.638577
2570.000000	10.641191
2568.000000	10.641493
2566.000000	10.642074
2564.000000	10.644478
2562.000000	10.646670
2560.000000	10.648423
2558.000000	10.649030
2556.000000	10.648806
2554.000000	10.649915
2552.000000	10.651165
2550.000000	10.651097
2548.000000	10.650746
2546.000000	10.650407
2544.000000	10.650762
2542.000000	10.651179
2540.000000	10.651285
2538.000000	10.652125
2536.000000	10.654292
2534.000000	10.655853
2532.000000	10.656573
2530.000000	10.657413
2528.000000	10.657202
2526.000000	10.657071
2524.000000	10.658929
2522.000000	10.658944
2520.000000	10.658531
2518.000000	10.659525
2516.000000	10.659912
2514.000000	10.659590
2512.000000	10.659691
2510.000000	10.659168
2508.000000	10.658195
2506.000000	10.658385
2504.000000	10.659311
2502.000000	10.657556
2500.000000	10.655457
2498.000000	10.655320
2496.000000	10.655666
2494.000000	10.656046
2492.000000	10.656034
2490.000000	10.655250
2488.000000	10.653357
2486.000000	10.651592
2484.000000	10.650443
2482.000000	10.649416
2480.000000	10.649378
2478.000000	10.648833
2476.000000	10.647014
2474.000000	10.644574
2472.000000	10.642728
2470.000000	10.640476
2468.000000	10.638456
2466.000000	10.635834
2464.000000	10.631139
2462.000000	10.627224
2460.000000	10.624681
2458.000000	10.622276
2456.000000	10.620407
2454.000000	10.618954
2452.000000	10.616806
2450.000000	10.613889
2448.000000	10.612367
2446.000000	10.610868
2444.000000	10.608958
2442.000000	10.608760
2440.000000	10.609650
2438.000000	10.608108
2436.000000	10.606918
2434.000000	10.607668
2432.000000	10.607393
2430.000000	10.604616
2428.000000	10.603531
2426.000000	10.605014
2424.000000	10.606633
2422.000000	10.608203
2420.000000	10.610193
2418.000000	10.613115
2416.000000	10.616326
2414.000000	10.619231
2412.000000	10.624125
2410.000000	10.627917
2408.000000	10.632259
2406.000000	10.636546
2404.000000	10.639712
2402.000000	10.643333
2400.000000	10.647202
2398.000000	10.649995
2396.000000	10.653064
2394.000000	10.655673
2392.000000	10.657738
2390.000000	10.659871
2388.000000	10.663254
2386.000000	10.665793
2384.000000	10.665609
2382.000000	10.662242
2380.000000	10.655801
2378.000000	10.645217
2376.000000	10.631224
2374.000000	10.612930
2372.000000	10.591627
2370.000000	10.569902
2368.000000	10.549842
2366.000000	10.531920
2364.000000	10.520141
2362.000000	10.515342
2360.000000	10.520619
2358.000000	10.534738
2356.000000	10.555302
2354.000000	10.581459
2352.000000	10.609823
2350.000000	10.628631
2348.000000	10.621883
2346.000000	10.595839
2344.000000	10.566609
2342.000000	10.541484
2340.000000	10.526577
2338.000000	10.526043
2336.000000	10.534085
2334.000000	10.541628
2332.000000	10.548164
2330.000000	10.555657
2328.000000	10.564779
2326.000000	10.573476
2324.000000	10.582457
2322.000000	10.591996
2320.000000	10.599923
2318.000000	10.606110
2316.000000	10.612248
2314.000000	10.618023
2312.000000	10.622016
2310.000000	10.624299
2308.000000	10.627635
2306.000000	10.630572
2304.000000	10.631916
2302.000000	10.632452
2300.000000	10.633395
2298.000000	10.634357
2296.000000	10.633182
2294.000000	10.632125
2292.000000	10.632656
2290.000000	10.630772
2288.000000	10.630291
2286.000000	10.631502
2284.000000	10.631412
2282.000000	10.629932
2280.000000	10.626978
2278.000000	10.623586
2276.000000	10.622027
2274.000000	10.620130
2272.000000	10.619058
2270.000000	10.617265
2268.000000	10.613982
2266.000000	10.611519
2264.000000	10.609251
2262.000000	10.607249
2260.000000	10.606010
2258.000000	10.605582
2256.000000	10.605611
2254.000000	10.604304
2252.000000	10.602359
2250.000000	10.601506
2248.000000	10.602800
2246.000000	10.603954
2244.000000	10.603983
2242.000000	10.603631
2240.000000	10.603706
2238.000000	10.604552
2236.000000	10.605403
2234.000000	10.606009
2232.000000	10.607285
2230.000000	10.608257
2228.000000	10.607912
2226.000000	10.608272
2224.000000	10.609813
2222.000000	10.610848
2220.000000	10.612043
2218.000000	10.614249
2216.000000	10.614318
2214.000000	10.614298
2212.000000	10.616046
2210.000000	10.616726
2208.000000	10.617915
2206.000000	10.618820
2204.000000	10.618171
2202.000000	10.617455
2200.000000	10.620521
2198.000000	10.624186
2196.000000	10.626133
2194.000000	10.626072
2192.000000	10.624917
2190.000000	10.625095
2188.000000	10.626970
2186.000000	10.628678
2184.000000	10.630131
2182.000000	10.631344
2180.000000	10.632151
2178.000000	10.631619
2176.000000	10.631550
2174.000000	10.631892
2172.000000	10.631662
2170.000000	10.630699
2168.000000	10.632424
2166.000000	10.635377
2164.000000	10.637354
2162.000000	10.640534
2160.000000	10.643811
2158.000000	10.645228
2156.000000	10.646739
2154.000000	10.648374
2152.000000	10.650000
2150.000000	10.651904
2148.000000	10.654328
2146.000000	10.656779
2144.000000	10.658343
2142.000000	10.659832
2140.000000	10.663200
2138.000000	10.666083
2136.000000	10.666743
2134.000000	10.669089
2132.000000	10.672092
2130.000000	10.674279
2128.000000	10.677046
2126.000000	10.679862
2124.000000	10.682365
2122.000000	10.684620
2120.000000	10.687377
2118.000000	10.691592
2116.000000	10.695659
2114.000000	10.698474
2112.000000	10.701056
2110.000000	10.703968
2108.000000	10.709943
2106.000000	10.717212
2104.000000	10.721790
2102.000000	10.724852
2100.000000	10.726847
2098.000000	10.730699
2096.000000	10.736870
2094.000000	10.742199
2092.000000	10.746804
2090.000000	10.751257
2088.000000	10.754601
2086.000000	10.758231
2084.000000	10.763764
2082.000000	10.769366
2080.000000	10.774607
2078.000000	10.778463
2076.000000	10.782555
2074.000000	10.787242
2072.000000	10.793022
2070.000000	10.799281
2068.000000	10.804737
2066.000000	10.808643
2064.000000	10.811968
2062.000000	10.816186
2060.000000	10.822272
2058.000000	10.829607
2056.000000	10.836512
2054.000000	10.841396
2052.000000	10.845890
2050.000000	10.850737
2048.000000	10.856728
2046.000000	10.861406
2044.000000	10.865407
2042.000000	10.868749
2040.000000	10.874038
2038.000000	10.880061
2036.000000	10.884470
2034.000000	10.887148
2032.000000	10.890543
2030.000000	10.892671
2028.000000	10.896162
2026.000000	10.902406
2024.000000	10.908032
2022.000000	10.910252
2020.000000	10.910727
2018.000000	10.914503
2016.000000	10.920447
2014.000000	10.924865
2012.000000	10.929662
2010.000000	10.935563
2008.000000	10.941103
2006.000000	10.945172
2004.000000	10.946589
2002.000000	10.948255
2000.000000	10.951418
1998.000000	10.954054
1996.000000	10.956237
1994.000000	10.955154
1992.000000	10.954884
1990.000000	10.960030
1988.000000	10.966339
1986.000000	10.969311
1984.000000	10.969348
1982.000000	10.967472
1980.000000	10.965935
1978.000000	10.966038
1976.000000	10.965324
1974.000000	10.964773
1972.000000	10.964107
1970.000000	10.961070
1968.000000	10.956948
1966.000000	10.956734
1964.000000	10.955466
1962.000000	10.946951
1960.000000	10.934799
1958.000000	10.935353
1956.000000	10.945467
1954.000000	10.948582
1952.000000	10.945487
1950.000000	10.940667
1948.000000	10.939045
1946.000000	10.934791
1944.000000	10.925828
1942.000000	10.923287
1940.000000	10.927589
1938.000000	10.926199
1936.000000	10.924134
1934.000000	10.921720
1932.000000	10.917822
1930.000000	10.912638
1928.000000	10.908851
1926.000000	10.901880
1924.000000	10.891445
1922.000000	10.885074
1920.000000	10.874118
1918.000000	10.863849
1916.000000	10.871117
1914.000000	10.871011
1912.000000	10.861160
1910.000000	10.850243
1908.000000	10.843621
1906.000000	10.837830
1904.000000	10.831152
1902.000000	10.824190
1900.000000	10.818320
1898.000000	10.810594
1896.000000	10.802824
1894.000000	10.797809
1892.000000	10.790333
1890.000000	10.780447
1888.000000	10.782295
1886.000000	10.783721
1884.000000	10.781066
1882.000000	10.776668
1880.000000	10.771509
1878.000000	10.765442
1876.000000	10.761744
1874.000000	10.756945
1872.000000	10.741963
1870.000000	10.718307
1868.000000	10.716764
1866.000000	10.728478
1864.000000	10.730768
1862.000000	10.724351
1860.000000	10.717713
1858.000000	10.712700
1856.000000	10.708994
1854.000000	10.703226
1852.000000	10.697485
1850.000000	10.689749
1848.000000	10.675252
1846.000000	10.640014
1844.000000	10.621085
1842.000000	10.644642
1840.000000	10.655773
1838.000000	10.645690
1836.000000	10.637366
1834.000000	10.627405
1832.000000	10.601808
1830.000000	10.580108
1828.000000	10.580219
1826.000000	10.570376
1824.000000	10.567364
1822.000000	10.569690
1820.000000	10.563166
1818.000000	10.550628
1816.000000	10.540124
1814.000000	10.527315
1812.000000	10.508856
1810.000000	10.495350
1808.000000	10.490525
1806.000000	10.479728
1804.000000	10.459056
1802.000000	10.433198
1800.000000	10.417907
1798.000000	10.412508
1796.000000	10.395841
1794.000000	10.348453
1792.000000	10.323355
1790.000000	10.342226
1788.000000	10.345180
1786.000000	10.319959
1784.000000	10.303034
1782.000000	10.290392
1780.000000	10.277285
1778.000000	10.265191
1776.000000	10.236345
1774.000000	10.176459
1772.000000	10.148164
1770.000000	10.166525
1768.000000	10.172772
1766.000000	10.178669
1764.000000	10.156519
1762.000000	10.125725
1760.000000	10.121414
1758.000000	10.105712
1756.000000	10.089451
1754.000000	10.063064
1752.000000	10.006787
1750.000000	9.986729
1748.000000	9.989822
1746.000000	9.982917
1744.000000	9.963955
1742.000000	9.931357
1740.000000	9.902257
1738.000000	9.890349
1736.000000	9.819339
1734.000000	9.765307
1732.000000	9.824235
1730.000000	9.866749
1728.000000	9.871072
1726.000000	9.863838
1724.000000	9.850365
1722.000000	9.831978
1720.000000	9.769384
1718.000000	9.693819
1716.000000	9.713627
1714.000000	9.763775
1712.000000	9.780532
1710.000000	9.768142
1708.000000	9.741132
1706.000000	9.710940
1704.000000	9.691829
1702.000000	9.611732
1700.000000	9.564594
1698.000000	9.580947
1696.000000	9.572614
1694.000000	9.643353
1692.000000	9.693000
1690.000000	9.683307
1688.000000	9.645065
1686.000000	9.540404
1684.000000	9.513016
1682.000000	9.600211
1680.000000	9.639908
1678.000000	9.621253
1676.000000	9.576784
1674.000000	9.578221
1672.000000	9.574281
1670.000000	9.544430
1668.000000	9.558851
1666.000000	9.574738
1664.000000	9.545633
1662.000000	9.532519
1660.000000	9.544999
1658.000000	9.532075
1656.000000	9.437875
1654.000000	9.284397
1652.000000	9.309761
1650.000000	9.418978
1648.000000	9.395291
1646.000000	9.375209
1644.000000	9.419295
1642.000000	9.436933
1640.000000	9.414343
1638.000000	9.348606
1636.000000	9.281782
1634.000000	9.311695
1632.000000	9.347076
1630.000000	9.325258
1628.000000	9.289957
1626.000000	9.250714
1624.000000	9.196643
1622.000000	9.161083
1620.000000	9.116833
1618.000000	9.024519
1616.000000	8.981705
1614.000000	8.983219
1612.000000	8.932448
1610.000000	8.872641
1608.000000	8.844344
1606.000000	8.849837
1604.000000	8.868568
1602.000000	8.891752
1600.000000	8.914322
1598.000000	8.933799
1596.000000	8.948821
1594.000000	8.959691
1592.000000	8.965429
1590.000000	8.965267
1588.000000	8.959645
1586.000000	8.951645
1584.000000	8.944053
1582.000000	8.938225
1580.000000	8.922664
1578.000000	8.861075
1576.000000	8.826241
1574.000000	8.881083
1572.000000	8.885724
1570.000000	8.848967
1568.000000	8.849151
1566.000000	8.845477
1564.000000	8.814047
1562.000000	8.718256
1560.000000	8.581517
1558.000000	8.593560
1556.000000	8.689023
1554.000000	8.741937
1552.000000	8.784787
1550.000000	8.812263
1548.000000	8.828832
1546.000000	8.820261
1544.000000	8.794856
1542.000000	8.748673
1540.000000	8.734895
1538.000000	8.831361
1536.000000	8.911274
1534.000000	8.914246
1532.000000	8.941149
1530.000000	8.960425
1528.000000	8.944441
1526.000000	8.925503
1524.000000	8.896098
1522.000000	8.844410
1520.000000	8.854162
1518.000000	8.871924
1516.000000	8.861738
1514.000000	8.850877
1512.000000	8.829589
1510.000000	8.782928
1508.000000	8.674890
1506.000000	8.616771
1504.000000	8.626690
1502.000000	8.525220
1500.000000	8.270794
1498.000000	7.941410
1496.000000	7.699463
1494.000000	7.672109
1492.000000	7.791685
1490.000000	7.973809
1488.000000	8.166467
1486.000000	8.319868
1484.000000	8.418867
1482.000000	8.467395
1480.000000	8.488090
1478.000000	8.480177
1476.000000	8.450490
1474.000000	8.403599
1472.000000	8.387942
1470.000000	8.404769
1468.000000	8.384450
1466.000000	8.329544
1464.000000	8.293693
1462.000000	8.262738
1460.000000	8.166685
1458.000000	8.010448
1456.000000	7.914294
1454.000000	7.873738
1452.000000	7.824314
1450.000000	7.838794
1448.000000	7.927317
1446.000000	8.023078
1444.000000	8.067018
1442.000000	8.077129
1440.000000	8.067925
1438.000000	8.033789
1436.000000	8.036723
1434.000000	8.079393
1432.000000	8.086486
1430.000000	8.080704
1428.000000	8.084035
1426.000000	8.085181
1424.000000	8.074978
1422.000000	8.051631
1420.000000	8.006118
1418.000000	8.003746
1416.000000	8.016529
1414.000000	8.001612
1412.000000	7.966264
1410.000000	7.912755
1408.000000	7.835986
1406.000000	7.756094
1404.000000	7.714307
1402.000000	7.720143
1400.000000	7.746683
1398.000000	7.792666
1396.000000	7.831229
1394.000000	7.865061
1392.000000	7.896842
1390.000000	7.896009
1388.000000	7.866034
1386.000000	7.839025
1384.000000	7.830327
1382.000000	7.844578
1380.000000	7.856413
1378.000000	7.851000
1376.000000	7.836544
1374.000000	7.824448
1372.000000	7.821545
1370.000000	7.812521
1368.000000	7.798327
1366.000000	7.784342
1364.000000	7.762928
1362.000000	7.746967
1360.000000	7.738307
1358.000000	7.724819
1356.000000	7.706299
1354.000000	7.687700
1352.000000	7.668208
1350.000000	7.648448
1348.000000	7.627802
1346.000000	7.605097
1344.000000	7.580786
1342.000000	7.555984
1340.000000	7.532553
1338.000000	7.519042
1336.000000	7.512359
1334.000000	7.503228
1332.000000	7.488655
1330.000000	7.469482
1328.000000	7.448453
1326.000000	7.426612
1324.000000	7.400922
1322.000000	7.372151
1320.000000	7.343427
1318.000000	7.315147
1316.000000	7.284929
1314.000000	7.254538
1312.000000	7.225222
1310.000000	7.195349
1308.000000	7.162783
1306.000000	7.128958
1304.000000	7.094093
1302.000000	7.061142
1300.000000	7.027895
1298.000000	6.992690
1296.000000	6.956917
1294.000000	6.921477
1292.000000	6.883626
1290.000000	6.844362
1288.000000	6.804288
1286.000000	6.763392
1284.000000	6.720835
1282.000000	6.678310
1280.000000	6.632839
1278.000000	6.583461
1276.000000	6.526797
1274.000000	6.462085
1272.000000	6.384604
1270.000000	6.288050
1268.000000	6.166243
1266.000000	6.018036
1264.000000	5.865842
1262.000000	5.747521
1260.000000	5.690628
1258.000000	5.698689
1256.000000	5.741709
1254.000000	5.779677
1252.000000	5.787743
1250.000000	5.764758
1248.000000	5.725378
1246.000000	5.680509
1244.000000	5.630852
1242.000000	5.579626
1240.000000	5.526716
1238.000000	5.476783
1236.000000	5.429773
1234.000000	5.382526
1232.000000	5.336488
1230.000000	5.292548
1228.000000	5.248046
1226.000000	5.202346
1224.000000	5.153921
1222.000000	5.104659
1220.000000	5.054724
1218.000000	5.002859
1216.000000	4.948846
1214.000000	4.896309
1212.000000	4.846700
1210.000000	4.802236
1208.000000	4.760828
1206.000000	4.719271
1204.000000	4.678442
1202.000000	4.638008
1200.000000	4.596015
1198.000000	4.554156
1196.000000	4.513221
1194.000000	4.472404
1192.000000	4.429353
1190.000000	4.384839
1188.000000	4.338792
1186.000000	4.289473
1184.000000	4.228216
1182.000000	4.153273
1180.000000	4.096033
1178.000000	4.070318
1176.000000	4.045854
1174.000000	4.007734
1172.000000	3.961237
1170.000000	3.913971
1168.000000	3.867698
1166.000000	3.820014
1164.000000	3.770748
1162.000000	3.722559
1160.000000	3.673124
1158.000000	3.627775
1156.000000	3.585684
1154.000000	3.543138
1152.000000	3.499206
1150.000000	3.456358
1148.000000	3.411977
1146.000000	3.367788
1144.000000	3.326435
1142.000000	3.288701
1140.000000	3.254160
1138.000000	3.220758
1136.000000	3.185649
1134.000000	3.146077
1132.000000	3.103000
1130.000000	3.058935
1128.000000	3.016136
1126.000000	2.974558
1124.000000	2.931672
1122.000000	2.887359
1120.000000	2.839978
1118.000000	2.790157
1116.000000	2.741260
1114.000000	2.695065
1112.000000	2.647428
1110.000000	2.600033
1108.000000	2.553241
1106.000000	2.506903
1104.000000	2.464876
1102.000000	2.424570
1100.000000	2.382146
1098.000000	2.339506
1096.000000	2.298015
1094.000000	2.259588
1092.000000	2.225369
1090.000000	2.191103
1088.000000	2.157109
1086.000000	2.124024
1084.000000	2.089901
1082.000000	2.055254
1080.000000	2.023472
1078.000000	1.996358
1076.000000	1.974180
1074.000000	1.955096
1072.000000	1.935625
1070.000000	1.914866
1068.000000	1.892463
1066.000000	1.869994
1064.000000	1.848267
1062.000000	1.826987
1060.000000	1.804731
1058.000000	1.776504
1056.000000	1.736473
1054.000000	1.686888
1052.000000	1.638938
1050.000000	1.611459
1048.000000	1.611884
1046.000000	1.621098
1044.000000	1.619893
1042.000000	1.609700
1040.000000	1.595716
1038.000000	1.577130
1036.000000	1.554117
1034.000000	1.529629
1032.000000	1.504794
1030.000000	1.480173
1028.000000	1.454981
1026.000000	1.428690
1024.000000	1.400035
1022.000000	1.371240
1020.000000	1.345232
1018.000000	1.324279
1016.000000	1.304424
1014.000000	1.284466
1012.000000	1.266693
1010.000000	1.250998
1008.000000	1.237793
1006.000000	1.221486
1004.000000	1.199655
1002.000000	1.177498
1000.000000	1.152920
