PE IR       SUBTECH     SPECTRUM    ASCII       PEDS        4.00        
   -1
TE110A_031_105K_BG.ASC
20/05/14
12:44:03.00
20/05/14
12:44:03.00
Administrator
TE110A.Thursday, May 14 2020, 014.
1000.000000
#HDR
-1
-1
#GR
cm-1
EGY
1.0
0.0
6000.000000
-2.000000
2501
8
105.483485
11.027654
#DATA
6000.000000	16.680468
5998.000000	16.713394
5996.000000	16.746913
5994.000000	16.780331
5992.000000	16.811834
5990.000000	16.843819
5988.000000	16.875975
5986.000000	16.908835
5984.000000	16.942839
5982.000000	16.976528
5980.000000	17.009719
5978.000000	17.042266
5976.000000	17.074671
5974.000000	17.109097
5972.000000	17.143499
5970.000000	17.178333
5968.000000	17.212652
5966.000000	17.247144
5964.000000	17.281410
5962.000000	17.315323
5960.000000	17.349413
5958.000000	17.383633
5956.000000	17.418132
5954.000000	17.453015
5952.000000	17.487263
5950.000000	17.521055
5948.000000	17.555607
5946.000000	17.590236
5944.000000	17.623849
5942.000000	17.656968
5940.000000	17.690050
5938.000000	17.723968
5936.000000	17.757488
5934.000000	17.790991
5932.000000	17.824751
5930.000000	17.859281
5928.000000	17.894220
5926.000000	17.929415
5924.000000	17.964319
5922.000000	17.999103
5920.000000	18.034095
5918.000000	18.069710
5916.000000	18.105455
5914.000000	18.141255
5912.000000	18.177930
5910.000000	18.215338
5908.000000	18.252585
5906.000000	18.289861
5904.000000	18.326820
5902.000000	18.363632
5900.000000	18.400253
5898.000000	18.437432
5896.000000	18.474185
5894.000000	18.510394
5892.000000	18.546535
5890.000000	18.582726
5888.000000	18.618344
5886.000000	18.653752
5884.000000	18.688129
5882.000000	18.724101
5880.000000	18.759937
5878.000000	18.796250
5876.000000	18.832385
5874.000000	18.868404
5872.000000	18.904578
5870.000000	18.941859
5868.000000	18.980076
5866.000000	19.018082
5864.000000	19.055160
5862.000000	19.092317
5860.000000	19.129204
5858.000000	19.166913
5856.000000	19.204837
5854.000000	19.242846
5852.000000	19.281994
5850.000000	19.320166
5848.000000	19.358827
5846.000000	19.399024
5844.000000	19.440607
5842.000000	19.482824
5840.000000	19.523471
5838.000000	19.563543
5836.000000	19.605074
5834.000000	19.648039
5832.000000	19.689784
5830.000000	19.730929
5828.000000	19.771248
5826.000000	19.812674
5824.000000	19.853781
5822.000000	19.894069
5820.000000	19.934821
5818.000000	19.975155
5816.000000	20.015444
5814.000000	20.056127
5812.000000	20.097475
5810.000000	20.138967
5808.000000	20.179017
5806.000000	20.218543
5804.000000	20.259071
5802.000000	20.300668
5800.000000	20.341885
5798.000000	20.383512
5796.000000	20.424019
5794.000000	20.464708
5792.000000	20.505362
5790.000000	20.546569
5788.000000	20.587814
5786.000000	20.628597
5784.000000	20.669232
5782.000000	20.711021
5780.000000	20.752961
5778.000000	20.795488
5776.000000	20.837997
5774.000000	20.880145
5772.000000	20.922170
5770.000000	20.963893
5768.000000	21.005378
5766.000000	21.046969
5764.000000	21.088750
5762.000000	21.130825
5760.000000	21.172664
5758.000000	21.214079
5756.000000	21.255632
5754.000000	21.297569
5752.000000	21.339427
5750.000000	21.380489
5748.000000	21.421950
5746.000000	21.463588
5744.000000	21.505675
5742.000000	21.547918
5740.000000	21.589598
5738.000000	21.631129
5736.000000	21.671443
5734.000000	21.711258
5732.000000	21.750179
5730.000000	21.789538
5728.000000	21.829938
5726.000000	21.871846
5724.000000	21.913383
5722.000000	21.954632
5720.000000	21.996816
5718.000000	22.039866
5716.000000	22.082736
5714.000000	22.125806
5712.000000	22.169971
5710.000000	22.214686
5708.000000	22.258349
5706.000000	22.302203
5704.000000	22.346444
5702.000000	22.391263
5700.000000	22.435927
5698.000000	22.480362
5696.000000	22.525262
5694.000000	22.570429
5692.000000	22.615856
5690.000000	22.660708
5688.000000	22.705047
5686.000000	22.750097
5684.000000	22.796581
5682.000000	22.843559
5680.000000	22.888721
5678.000000	22.933165
5676.000000	22.976544
5674.000000	23.021303
5672.000000	23.066949
5670.000000	23.112720
5668.000000	23.158354
5666.000000	23.203798
5664.000000	23.249688
5662.000000	23.295342
5660.000000	23.340419
5658.000000	23.386117
5656.000000	23.431167
5654.000000	23.476265
5652.000000	23.521854
5650.000000	23.567750
5648.000000	23.614238
5646.000000	23.660298
5644.000000	23.706000
5642.000000	23.750463
5640.000000	23.794599
5638.000000	23.840348
5636.000000	23.886577
5634.000000	23.932811
5632.000000	23.977944
5630.000000	24.023808
5628.000000	24.069232
5626.000000	24.113947
5624.000000	24.158423
5622.000000	24.204276
5620.000000	24.251100
5618.000000	24.297338
5616.000000	24.341632
5614.000000	24.385920
5612.000000	24.431118
5610.000000	24.477099
5608.000000	24.522360
5606.000000	24.567732
5604.000000	24.613902
5602.000000	24.660621
5600.000000	24.706678
5598.000000	24.751306
5596.000000	24.796784
5594.000000	24.843808
5592.000000	24.891333
5590.000000	24.938926
5588.000000	24.985240
5586.000000	25.030839
5584.000000	25.077145
5582.000000	25.123786
5580.000000	25.170941
5578.000000	25.217997
5576.000000	25.266048
5574.000000	25.314440
5572.000000	25.361576
5570.000000	25.408674
5568.000000	25.456843
5566.000000	25.505761
5564.000000	25.554415
5562.000000	25.602487
5560.000000	25.649940
5558.000000	25.697454
5556.000000	25.743748
5554.000000	25.789577
5552.000000	25.835584
5550.000000	25.883325
5548.000000	25.931578
5546.000000	25.980297
5544.000000	26.028560
5542.000000	26.076169
5540.000000	26.122213
5538.000000	26.168866
5536.000000	26.217049
5534.000000	26.265448
5532.000000	26.313110
5530.000000	26.360544
5528.000000	26.409013
5526.000000	26.455296
5524.000000	26.499093
5522.000000	26.543579
5520.000000	26.591366
5518.000000	26.641634
5516.000000	26.691552
5514.000000	26.739896
5512.000000	26.784866
5510.000000	26.827855
5508.000000	26.873633
5506.000000	26.924022
5504.000000	26.975018
5502.000000	27.023361
5500.000000	27.071073
5498.000000	27.117268
5496.000000	27.157705
5494.000000	27.196795
5492.000000	27.241428
5490.000000	27.294849
5488.000000	27.351411
5486.000000	27.408131
5484.000000	27.464282
5482.000000	27.515889
5480.000000	27.557002
5478.000000	27.590254
5476.000000	27.629984
5474.000000	27.683786
5472.000000	27.743043
5470.000000	27.796166
5468.000000	27.843911
5466.000000	27.890387
5464.000000	27.934294
5462.000000	27.979186
5460.000000	28.029883
5458.000000	28.087051
5456.000000	28.144784
5454.000000	28.196461
5452.000000	28.238822
5450.000000	28.273267
5448.000000	28.308647
5446.000000	28.352623
5444.000000	28.401583
5442.000000	28.456895
5440.000000	28.512431
5438.000000	28.561994
5436.000000	28.607902
5434.000000	28.652536
5432.000000	28.695804
5430.000000	28.740629
5428.000000	28.796519
5426.000000	28.864664
5424.000000	28.931062
5422.000000	28.988613
5420.000000	29.037387
5418.000000	29.069355
5416.000000	29.089741
5414.000000	29.117051
5412.000000	29.164950
5410.000000	29.232527
5408.000000	29.303665
5406.000000	29.368470
5404.000000	29.424964
5402.000000	29.477352
5400.000000	29.522898
5398.000000	29.556074
5396.000000	29.585581
5394.000000	29.632339
5392.000000	29.696801
5390.000000	29.758898
5388.000000	29.804963
5386.000000	29.850025
5384.000000	29.907309
5382.000000	29.965769
5380.000000	30.006347
5378.000000	30.040517
5376.000000	30.088464
5374.000000	30.155375
5372.000000	30.224724
5370.000000	30.286302
5368.000000	30.337076
5366.000000	30.381687
5364.000000	30.428723
5362.000000	30.483008
5360.000000	30.538183
5358.000000	30.579371
5356.000000	30.607375
5354.000000	30.642763
5352.000000	30.696326
5350.000000	30.755172
5348.000000	30.793958
5346.000000	30.827573
5344.000000	30.874884
5342.000000	30.927043
5340.000000	30.973834
5338.000000	31.027246
5336.000000	31.096503
5334.000000	31.166052
5332.000000	31.220619
5330.000000	31.266097
5328.000000	31.314836
5326.000000	31.373110
5324.000000	31.438317
5322.000000	31.497952
5320.000000	31.548349
5318.000000	31.596069
5316.000000	31.646463
5314.000000	31.699600
5312.000000	31.747303
5310.000000	31.788535
5308.000000	31.831938
5306.000000	31.885296
5304.000000	31.943918
5302.000000	31.999139
5300.000000	32.052336
5298.000000	32.106716
5296.000000	32.159470
5294.000000	32.201340
5292.000000	32.239415
5290.000000	32.286617
5288.000000	32.343095
5286.000000	32.401116
5284.000000	32.455850
5282.000000	32.511707
5280.000000	32.568461
5278.000000	32.625630
5276.000000	32.681670
5274.000000	32.733212
5272.000000	32.780004
5270.000000	32.823851
5268.000000	32.860267
5266.000000	32.892759
5264.000000	32.936136
5262.000000	33.000107
5260.000000	33.070420
5258.000000	33.125779
5256.000000	33.172062
5254.000000	33.223422
5252.000000	33.273329
5250.000000	33.314031
5248.000000	33.353709
5246.000000	33.408155
5244.000000	33.477699
5242.000000	33.548166
5240.000000	33.611627
5238.000000	33.665383
5236.000000	33.714664
5234.000000	33.760457
5232.000000	33.806638
5230.000000	33.852148
5228.000000	33.893416
5226.000000	33.938765
5224.000000	33.997749
5222.000000	34.063900
5220.000000	34.122744
5218.000000	34.177114
5216.000000	34.233754
5214.000000	34.288096
5212.000000	34.329699
5210.000000	34.357380
5208.000000	34.389182
5206.000000	34.446149
5204.000000	34.523150
5202.000000	34.596246
5200.000000	34.650510
5198.000000	34.699009
5196.000000	34.754119
5194.000000	34.814609
5192.000000	34.871068
5190.000000	34.921927
5188.000000	34.969828
5186.000000	35.020879
5184.000000	35.076954
5182.000000	35.136739
5180.000000	35.194870
5178.000000	35.251609
5176.000000	35.307261
5174.000000	35.360076
5172.000000	35.412789
5170.000000	35.468196
5168.000000	35.523706
5166.000000	35.576374
5164.000000	35.628307
5162.000000	35.682707
5160.000000	35.737532
5158.000000	35.791779
5156.000000	35.846715
5154.000000	35.903170
5152.000000	35.959712
5150.000000	36.015616
5148.000000	36.070786
5146.000000	36.124791
5144.000000	36.176832
5142.000000	36.229237
5140.000000	36.283265
5138.000000	36.338920
5136.000000	36.394210
5134.000000	36.449132
5132.000000	36.504164
5130.000000	36.558430
5128.000000	36.611769
5126.000000	36.666014
5124.000000	36.721142
5122.000000	36.775697
5120.000000	36.828880
5118.000000	36.882902
5116.000000	36.937562
5114.000000	36.992535
5112.000000	37.047115
5110.000000	37.101653
5108.000000	37.156362
5106.000000	37.211872
5104.000000	37.267322
5102.000000	37.322634
5100.000000	37.378168
5098.000000	37.434646
5096.000000	37.491164
5094.000000	37.547629
5092.000000	37.604214
5090.000000	37.660934
5088.000000	37.716763
5086.000000	37.772427
5084.000000	37.828468
5082.000000	37.885590
5080.000000	37.942919
5078.000000	38.000323
5076.000000	38.056647
5074.000000	38.112497
5072.000000	38.169167
5070.000000	38.226563
5068.000000	38.283720
5066.000000	38.340989
5064.000000	38.398076
5062.000000	38.454716
5060.000000	38.510088
5058.000000	38.565735
5056.000000	38.620953
5054.000000	38.676895
5052.000000	38.732882
5050.000000	38.789325
5048.000000	38.845521
5046.000000	38.902247
5044.000000	38.958639
5042.000000	39.014528
5040.000000	39.069941
5038.000000	39.125425
5036.000000	39.180978
5034.000000	39.236896
5032.000000	39.293296
5030.000000	39.350187
5028.000000	39.406423
5026.000000	39.461341
5024.000000	39.515731
5022.000000	39.571697
5020.000000	39.629016
5018.000000	39.687010
5016.000000	39.743613
5014.000000	39.799529
5012.000000	39.856328
5010.000000	39.914360
5008.000000	39.970960
5006.000000	40.027272
5004.000000	40.084817
5002.000000	40.142898
5000.000000	40.200589
4998.000000	40.259561
4996.000000	40.318135
4994.000000	40.375091
4992.000000	40.431858
4990.000000	40.490354
4988.000000	40.549252
4986.000000	40.608557
4984.000000	40.667514
4982.000000	40.725533
4980.000000	40.782871
4978.000000	40.840660
4976.000000	40.898652
4974.000000	40.956472
4972.000000	41.013647
4970.000000	41.071258
4968.000000	41.129134
4966.000000	41.187378
4964.000000	41.244850
4962.000000	41.303066
4960.000000	41.360759
4958.000000	41.417070
4956.000000	41.472602
4954.000000	41.529963
4952.000000	41.588264
4950.000000	41.646231
4948.000000	41.703336
4946.000000	41.760458
4944.000000	41.816358
4942.000000	41.872037
4940.000000	41.928531
4938.000000	41.985922
4936.000000	42.042634
4934.000000	42.099299
4932.000000	42.156883
4930.000000	42.215404
4928.000000	42.272346
4926.000000	42.328039
4924.000000	42.384222
4922.000000	42.442183
4920.000000	42.499466
4918.000000	42.556435
4916.000000	42.613911
4914.000000	42.672124
4912.000000	42.729624
4910.000000	42.787312
4908.000000	42.845211
4906.000000	42.904439
4904.000000	42.964069
4902.000000	43.023718
4900.000000	43.082153
4898.000000	43.140444
4896.000000	43.199193
4894.000000	43.259015
4892.000000	43.319127
4890.000000	43.378977
4888.000000	43.438689
4886.000000	43.498642
4884.000000	43.557858
4882.000000	43.616857
4880.000000	43.676083
4878.000000	43.735833
4876.000000	43.793989
4874.000000	43.851703
4872.000000	43.910171
4870.000000	43.969810
4868.000000	44.028693
4866.000000	44.087285
4864.000000	44.145498
4862.000000	44.203227
4860.000000	44.260478
4858.000000	44.319101
4856.000000	44.378093
4854.000000	44.437282
4852.000000	44.495880
4850.000000	44.553785
4848.000000	44.609952
4846.000000	44.666734
4844.000000	44.725511
4842.000000	44.785621
4840.000000	44.843728
4838.000000	44.900267
4836.000000	44.956863
4834.000000	45.014816
4832.000000	45.072018
4830.000000	45.129336
4828.000000	45.186255
4826.000000	45.243890
4824.000000	45.301975
4822.000000	45.361361
4820.000000	45.420606
4818.000000	45.479895
4816.000000	45.538963
4814.000000	45.597460
4812.000000	45.655197
4810.000000	45.714118
4808.000000	45.774757
4806.000000	45.835810
4804.000000	45.895800
4802.000000	45.955860
4800.000000	46.015696
4798.000000	46.076390
4796.000000	46.137578
4794.000000	46.198869
4792.000000	46.258676
4790.000000	46.318590
4788.000000	46.378647
4786.000000	46.439377
4784.000000	46.500015
4782.000000	46.560870
4780.000000	46.620599
4778.000000	46.679826
4776.000000	46.738790
4774.000000	46.799454
4772.000000	46.860479
4770.000000	46.921251
4768.000000	46.980570
4766.000000	47.039489
4764.000000	47.097165
4762.000000	47.155085
4760.000000	47.213816
4758.000000	47.273917
4756.000000	47.333546
4754.000000	47.392005
4752.000000	47.448990
4750.000000	47.506691
4748.000000	47.565403
4746.000000	47.624350
4744.000000	47.682411
4742.000000	47.740749
4740.000000	47.798434
4738.000000	47.855550
4736.000000	47.912888
4734.000000	47.971612
4732.000000	48.029945
4730.000000	48.088153
4728.000000	48.146531
4726.000000	48.205461
4724.000000	48.264634
4722.000000	48.325748
4720.000000	48.386706
4718.000000	48.447340
4716.000000	48.508523
4714.000000	48.571248
4712.000000	48.632787
4710.000000	48.693980
4708.000000	48.755790
4706.000000	48.819525
4704.000000	48.883283
4702.000000	48.946886
4700.000000	49.010241
4698.000000	49.074180
4696.000000	49.136787
4694.000000	49.198321
4692.000000	49.258537
4690.000000	49.319159
4688.000000	49.380154
4686.000000	49.442584
4684.000000	49.504740
4682.000000	49.566243
4680.000000	49.626860
4678.000000	49.687874
4676.000000	49.748751
4674.000000	49.810960
4672.000000	49.873276
4670.000000	49.934771
4668.000000	49.995380
4666.000000	50.056862
4664.000000	50.117565
4662.000000	50.178976
4660.000000	50.241222
4658.000000	50.303689
4656.000000	50.363610
4654.000000	50.423068
4652.000000	50.483734
4650.000000	50.546189
4648.000000	50.607249
4646.000000	50.667207
4644.000000	50.727664
4642.000000	50.790204
4640.000000	50.852229
4638.000000	50.913108
4636.000000	50.973023
4634.000000	51.034126
4632.000000	51.095602
4630.000000	51.157595
4628.000000	51.218649
4626.000000	51.279733
4624.000000	51.340839
4622.000000	51.403068
4620.000000	51.465205
4618.000000	51.527584
4616.000000	51.590233
4614.000000	51.654349
4612.000000	51.719097
4610.000000	51.783914
4608.000000	51.847997
4606.000000	51.911906
4604.000000	51.976503
4602.000000	52.042830
4600.000000	52.108284
4598.000000	52.173041
4596.000000	52.237996
4594.000000	52.303268
4592.000000	52.367464
4590.000000	52.432644
4588.000000	52.498026
4586.000000	52.563407
4584.000000	52.627747
4582.000000	52.691770
4580.000000	52.755905
4578.000000	52.820036
4576.000000	52.883246
4574.000000	52.947391
4572.000000	53.012102
4570.000000	53.075061
4568.000000	53.136999
4566.000000	53.200587
4564.000000	53.264365
4562.000000	53.327669
4560.000000	53.391024
4558.000000	53.454729
4556.000000	53.517449
4554.000000	53.580317
4552.000000	53.642206
4550.000000	53.704199
4548.000000	53.766460
4546.000000	53.829303
4544.000000	53.891502
4542.000000	53.955030
4540.000000	54.018387
4538.000000	54.081370
4536.000000	54.143629
4534.000000	54.206317
4532.000000	54.268246
4530.000000	54.331812
4528.000000	54.396518
4526.000000	54.461117
4524.000000	54.524540
4522.000000	54.588410
4520.000000	54.651496
4518.000000	54.715251
4516.000000	54.780534
4514.000000	54.846183
4512.000000	54.909932
4510.000000	54.974272
4508.000000	55.039862
4506.000000	55.106286
4504.000000	55.172544
4502.000000	55.238481
4500.000000	55.302968
4498.000000	55.368587
4496.000000	55.435027
4494.000000	55.501539
4492.000000	55.566862
4490.000000	55.631798
4488.000000	55.695957
4486.000000	55.761125
4484.000000	55.826663
4482.000000	55.891939
4480.000000	55.956147
4478.000000	56.020715
4476.000000	56.084564
4474.000000	56.148207
4472.000000	56.211208
4470.000000	56.274383
4468.000000	56.337268
4466.000000	56.400689
4464.000000	56.462848
4462.000000	56.524788
4460.000000	56.586781
4458.000000	56.649046
4456.000000	56.710508
4454.000000	56.773137
4452.000000	56.835533
4450.000000	56.897588
4448.000000	56.959711
4446.000000	57.022689
4444.000000	57.085036
4442.000000	57.147245
4440.000000	57.208960
4438.000000	57.271418
4436.000000	57.334380
4434.000000	57.398355
4432.000000	57.461557
4430.000000	57.524451
4428.000000	57.587247
4426.000000	57.650917
4424.000000	57.714029
4422.000000	57.778380
4420.000000	57.843259
4418.000000	57.907464
4416.000000	57.970292
4414.000000	58.034345
4412.000000	58.098211
4410.000000	58.163324
4408.000000	58.229231
4406.000000	58.294490
4404.000000	58.357934
4402.000000	58.421835
4400.000000	58.485373
4398.000000	58.548864
4396.000000	58.611544
4394.000000	58.675194
4392.000000	58.739221
4390.000000	58.802903
4388.000000	58.864952
4386.000000	58.927014
4384.000000	58.989284
4382.000000	59.051618
4380.000000	59.111781
4378.000000	59.171392
4376.000000	59.231094
4374.000000	59.291892
4372.000000	59.352909
4370.000000	59.414126
4368.000000	59.474422
4366.000000	59.534925
4364.000000	59.594936
4362.000000	59.656049
4360.000000	59.717643
4358.000000	59.779679
4356.000000	59.841111
4354.000000	59.903919
4352.000000	59.967176
4350.000000	60.030744
4348.000000	60.094392
4346.000000	60.158907
4344.000000	60.221501
4342.000000	60.282984
4340.000000	60.345090
4338.000000	60.409508
4336.000000	60.473260
4334.000000	60.536636
4332.000000	60.600712
4330.000000	60.666019
4328.000000	60.730698
4326.000000	60.795671
4324.000000	60.861146
4322.000000	60.928442
4320.000000	60.995812
4318.000000	61.063259
4316.000000	61.131301
4314.000000	61.200116
4312.000000	61.266671
4310.000000	61.333214
4308.000000	61.400725
4306.000000	61.467696
4304.000000	61.532919
4302.000000	61.599312
4300.000000	61.665621
4298.000000	61.731456
4296.000000	61.796624
4294.000000	61.862143
4292.000000	61.926143
4290.000000	61.988957
4288.000000	62.050995
4286.000000	62.113630
4284.000000	62.175107
4282.000000	62.236030
4280.000000	62.295805
4278.000000	62.355557
4276.000000	62.414722
4274.000000	62.473971
4272.000000	62.533303
4270.000000	62.593870
4268.000000	62.653080
4266.000000	62.712167
4264.000000	62.771962
4262.000000	62.833247
4260.000000	62.895202
4258.000000	62.958686
4256.000000	63.022458
4254.000000	63.086924
4252.000000	63.150332
4250.000000	63.213378
4248.000000	63.276582
4246.000000	63.340873
4244.000000	63.404680
4242.000000	63.469042
4240.000000	63.534134
4238.000000	63.599474
4236.000000	63.663776
4234.000000	63.729358
4232.000000	63.794412
4230.000000	63.858585
4228.000000	63.922026
4226.000000	63.986032
4224.000000	64.050348
4222.000000	64.114737
4220.000000	64.178541
4218.000000	64.243936
4216.000000	64.308535
4214.000000	64.372665
4212.000000	64.437285
4210.000000	64.503399
4208.000000	64.569821
4206.000000	64.637104
4204.000000	64.704386
4202.000000	64.772244
4200.000000	64.840306
4198.000000	64.909116
4196.000000	64.977305
4194.000000	65.046569
4192.000000	65.115384
4190.000000	65.183436
4188.000000	65.251253
4186.000000	65.318967
4184.000000	65.384849
4182.000000	65.451480
4180.000000	65.517032
4178.000000	65.581223
4176.000000	65.645934
4174.000000	65.711511
4172.000000	65.776007
4170.000000	65.841495
4168.000000	65.905995
4166.000000	65.969520
4164.000000	66.032834
4162.000000	66.097671
4160.000000	66.162589
4158.000000	66.226806
4156.000000	66.289540
4154.000000	66.353275
4152.000000	66.418209
4150.000000	66.484228
4148.000000	66.549249
4146.000000	66.614343
4144.000000	66.679445
4142.000000	66.745031
4140.000000	66.810283
4138.000000	66.876115
4136.000000	66.941158
4134.000000	67.006873
4132.000000	67.072840
4130.000000	67.138838
4128.000000	67.204628
4126.000000	67.271475
4124.000000	67.337536
4122.000000	67.403325
4120.000000	67.468990
4118.000000	67.535787
4116.000000	67.602228
4114.000000	67.668148
4112.000000	67.732703
4110.000000	67.797250
4108.000000	67.860723
4106.000000	67.924815
4104.000000	67.990384
4102.000000	68.056986
4100.000000	68.121977
4098.000000	68.185802
4096.000000	68.248434
4094.000000	68.312952
4092.000000	68.379102
4090.000000	68.445821
4088.000000	68.512690
4086.000000	68.582565
4084.000000	68.653329
4082.000000	68.721926
4080.000000	68.788073
4078.000000	68.856068
4076.000000	68.924191
4074.000000	68.991289
4072.000000	69.057721
4070.000000	69.123051
4068.000000	69.186160
4066.000000	69.250640
4064.000000	69.315369
4062.000000	69.379567
4060.000000	69.443279
4058.000000	69.508888
4056.000000	69.575175
4054.000000	69.640162
4052.000000	69.703421
4050.000000	69.766938
4048.000000	69.827444
4046.000000	69.887324
4044.000000	69.953212
4042.000000	70.025094
4040.000000	70.094725
4038.000000	70.162211
4036.000000	70.228533
4034.000000	70.294922
4032.000000	70.362226
4030.000000	70.429523
4028.000000	70.493368
4026.000000	70.558593
4024.000000	70.627813
4022.000000	70.696638
4020.000000	70.763002
4018.000000	70.832704
4016.000000	70.903843
4014.000000	70.973377
4012.000000	71.039943
4010.000000	71.105159
4008.000000	71.172689
4006.000000	71.245522
4004.000000	71.318029
4002.000000	71.387063
4000.000000	71.452694
3998.000000	71.515655
3996.000000	71.576066
3994.000000	71.638154
3992.000000	71.702666
3990.000000	71.771374
3988.000000	71.841264
3986.000000	71.905752
3984.000000	71.964663
3982.000000	72.027385
3980.000000	72.091644
3978.000000	72.147974
3976.000000	72.200210
3974.000000	72.260594
3972.000000	72.325807
3970.000000	72.392663
3968.000000	72.461559
3966.000000	72.524448
3964.000000	72.572130
3962.000000	72.622675
3960.000000	72.689362
3958.000000	72.758475
3956.000000	72.819742
3954.000000	72.870100
3952.000000	72.897103
3950.000000	72.919061
3948.000000	72.975555
3946.000000	73.042752
3944.000000	73.085713
3942.000000	73.162461
3940.000000	73.283383
3938.000000	73.379504
3936.000000	73.404546
3934.000000	73.376718
3932.000000	73.399790
3930.000000	73.517155
3928.000000	73.617393
3926.000000	73.656000
3924.000000	73.707873
3922.000000	73.758595
3920.000000	73.748117
3918.000000	73.766671
3916.000000	73.921639
3914.000000	74.129102
3912.000000	74.261929
3910.000000	74.307036
3908.000000	74.207473
3906.000000	73.932317
3904.000000	73.698329
3902.000000	73.704990
3900.000000	73.942520
3898.000000	74.317463
3896.000000	74.583726
3894.000000	74.535236
3892.000000	74.420543
3890.000000	74.496155
3888.000000	74.475865
3886.000000	74.387623
3884.000000	74.538983
3882.000000	74.711325
3880.000000	74.855981
3878.000000	75.050940
3876.000000	75.086058
3874.000000	74.933234
3872.000000	74.649702
3870.000000	74.545799
3868.000000	74.782973
3866.000000	74.970441
3864.000000	75.097537
3862.000000	75.359096
3860.000000	75.572528
3858.000000	75.257912
3856.000000	74.165145
3854.000000	73.408450
3852.000000	74.081986
3850.000000	75.339754
3848.000000	76.021352
3846.000000	76.100106
3844.000000	75.965476
3842.000000	75.722333
3840.000000	75.275292
3838.000000	75.057083
3836.000000	75.441942
3834.000000	75.950981
3832.000000	76.254538
3830.000000	76.478772
3828.000000	76.614646
3826.000000	76.623624
3824.000000	76.368304
3822.000000	76.050752
3820.000000	76.053299
3818.000000	76.028620
3816.000000	76.096980
3814.000000	76.685002
3812.000000	77.196762
3810.000000	77.102528
3808.000000	76.766760
3806.000000	76.726833
3804.000000	76.621027
3802.000000	76.398436
3800.000000	76.714938
3798.000000	77.242404
3796.000000	77.554887
3794.000000	77.806171
3792.000000	77.980476
3790.000000	78.054817
3788.000000	78.074947
3786.000000	78.080574
3784.000000	78.108090
3782.000000	78.090809
3780.000000	78.066408
3778.000000	78.200339
3776.000000	78.395408
3774.000000	78.432533
3772.000000	78.269008
3770.000000	78.156015
3768.000000	78.247905
3766.000000	78.411898
3764.000000	78.558741
3762.000000	78.562346
3760.000000	78.479846
3758.000000	78.522254
3756.000000	78.413674
3754.000000	77.764010
3752.000000	77.055418
3750.000000	77.066580
3748.000000	77.339370
3746.000000	77.093545
3744.000000	77.266784
3742.000000	78.272076
3740.000000	78.796887
3738.000000	78.510409
3736.000000	78.231920
3734.000000	78.349516
3732.000000	78.757841
3730.000000	79.234965
3728.000000	79.439362
3726.000000	79.459075
3724.000000	79.531787
3722.000000	79.660950
3720.000000	79.831180
3718.000000	79.978850
3716.000000	79.902281
3714.000000	79.488542
3712.000000	79.210989
3710.000000	79.485783
3708.000000	79.997193
3706.000000	80.300307
3704.000000	80.293553
3702.000000	80.254985
3700.000000	80.414407
3698.000000	80.602613
3696.000000	80.654714
3694.000000	80.498772
3692.000000	80.031928
3690.000000	79.509013
3688.000000	79.640542
3686.000000	80.374938
3684.000000	80.874161
3682.000000	80.925186
3680.000000	80.659056
3678.000000	80.007581
3676.000000	79.529563
3674.000000	79.708612
3672.000000	79.843125
3670.000000	79.981596
3668.000000	80.596387
3666.000000	81.170101
3664.000000	81.382443
3662.000000	81.414576
3660.000000	81.298588
3658.000000	81.009510
3656.000000	80.899376
3654.000000	80.917689
3652.000000	80.487415
3650.000000	79.988289
3648.000000	80.217336
3646.000000	80.925157
3644.000000	81.422833
3642.000000	81.588318
3640.000000	81.628202
3638.000000	81.630615
3636.000000	81.581831
3634.000000	81.443156
3632.000000	80.985543
3630.000000	80.399938
3628.000000	80.543785
3626.000000	81.240462
3624.000000	81.580743
3622.000000	81.390731
3620.000000	81.110343
3618.000000	81.156283
3616.000000	81.318196
3614.000000	81.299472
3612.000000	81.191455
3610.000000	81.116885
3608.000000	81.245759
3606.000000	81.538860
3604.000000	81.701637
3602.000000	81.688421
3600.000000	81.648452
3598.000000	81.612632
3596.000000	81.565228
3594.000000	81.578270
3592.000000	81.561234
3590.000000	81.343602
3588.000000	81.167724
3586.000000	81.322796
3584.000000	81.589429
3582.000000	81.707844
3580.000000	81.719588
3578.000000	81.716208
3576.000000	81.715294
3574.000000	81.714839
3572.000000	81.648285
3570.000000	81.416245
3568.000000	81.185106
3566.000000	81.239063
3564.000000	81.456658
3562.000000	81.584661
3560.000000	81.625653
3558.000000	81.649251
3556.000000	81.637778
3554.000000	81.582650
3552.000000	81.550918
3550.000000	81.535701
3548.000000	81.463213
3546.000000	81.408410
3544.000000	81.454633
3542.000000	81.531345
3540.000000	81.553044
3538.000000	81.521250
3536.000000	81.494736
3534.000000	81.489271
3532.000000	81.452526
3530.000000	81.376766
3528.000000	81.308379
3526.000000	81.261630
3524.000000	81.228651
3522.000000	81.225897
3520.000000	81.230187
3518.000000	81.213522
3516.000000	81.183379
3514.000000	81.137962
3512.000000	81.070891
3510.000000	81.006958
3508.000000	80.968572
3506.000000	80.907749
3504.000000	80.817677
3502.000000	80.771760
3500.000000	80.759549
3498.000000	80.719503
3496.000000	80.662376
3494.000000	80.617366
3492.000000	80.570383
3490.000000	80.507714
3488.000000	80.447940
3486.000000	80.403907
3484.000000	80.355904
3482.000000	80.312849
3480.000000	80.303203
3478.000000	80.310705
3476.000000	80.310494
3474.000000	80.312122
3472.000000	80.320178
3470.000000	80.324217
3468.000000	80.333157
3466.000000	80.362976
3464.000000	80.401443
3462.000000	80.438140
3460.000000	80.480279
3458.000000	80.522816
3456.000000	80.557557
3454.000000	80.585727
3452.000000	80.604926
3450.000000	80.602364
3448.000000	80.592095
3446.000000	80.618631
3444.000000	80.674854
3442.000000	80.739264
3440.000000	80.816263
3438.000000	80.902445
3436.000000	81.002161
3434.000000	81.124613
3432.000000	81.264268
3430.000000	81.407229
3428.000000	81.551107
3426.000000	81.689179
3424.000000	81.807694
3422.000000	81.909105
3420.000000	82.018695
3418.000000	82.136880
3416.000000	82.239336
3414.000000	82.321418
3412.000000	82.393565
3410.000000	82.460138
3408.000000	82.521275
3406.000000	82.578043
3404.000000	82.626915
3402.000000	82.670783
3400.000000	82.726041
3398.000000	82.803065
3396.000000	82.885422
3394.000000	82.951414
3392.000000	83.015843
3390.000000	83.099726
3388.000000	83.180415
3386.000000	83.241409
3384.000000	83.301035
3382.000000	83.362794
3380.000000	83.418956
3378.000000	83.471155
3376.000000	83.521590
3374.000000	83.568672
3372.000000	83.604998
3370.000000	83.630668
3368.000000	83.665871
3366.000000	83.718198
3364.000000	83.774218
3362.000000	83.824559
3360.000000	83.871899
3358.000000	83.917532
3356.000000	83.960764
3354.000000	84.002604
3352.000000	84.040269
3350.000000	84.079086
3348.000000	84.126262
3346.000000	84.173240
3344.000000	84.214920
3342.000000	84.253772
3340.000000	84.287369
3338.000000	84.320662
3336.000000	84.364476
3334.000000	84.413027
3332.000000	84.456913
3330.000000	84.493667
3328.000000	84.525452
3326.000000	84.557754
3324.000000	84.597549
3322.000000	84.640682
3320.000000	84.680154
3318.000000	84.716796
3316.000000	84.751346
3314.000000	84.782316
3312.000000	84.811346
3310.000000	84.835256
3308.000000	84.855246
3306.000000	84.882467
3304.000000	84.927953
3302.000000	84.981705
3300.000000	85.025928
3298.000000	85.059642
3296.000000	85.089917
3294.000000	85.117450
3292.000000	85.149043
3290.000000	85.193123
3288.000000	85.240837
3286.000000	85.282381
3284.000000	85.319806
3282.000000	85.356895
3280.000000	85.394173
3278.000000	85.428101
3276.000000	85.459218
3274.000000	85.492153
3272.000000	85.530032
3270.000000	85.576129
3268.000000	85.627438
3266.000000	85.674538
3264.000000	85.718849
3262.000000	85.761883
3260.000000	85.803939
3258.000000	85.845065
3256.000000	85.886511
3254.000000	85.934647
3252.000000	85.989216
3250.000000	86.038215
3248.000000	86.078031
3246.000000	86.118648
3244.000000	86.172460
3242.000000	86.231104
3240.000000	86.284536
3238.000000	86.333833
3236.000000	86.377699
3234.000000	86.417273
3232.000000	86.467478
3230.000000	86.525247
3228.000000	86.579496
3226.000000	86.632477
3224.000000	86.683850
3222.000000	86.728717
3220.000000	86.772358
3218.000000	86.821646
3216.000000	86.870631
3214.000000	86.918306
3212.000000	86.970585
3210.000000	87.024743
3208.000000	87.084459
3206.000000	87.149832
3204.000000	87.218328
3202.000000	87.287394
3200.000000	87.354367
3198.000000	87.423365
3196.000000	87.500354
3194.000000	87.578731
3192.000000	87.653019
3190.000000	87.724737
3188.000000	87.795739
3186.000000	87.865077
3184.000000	87.937741
3182.000000	88.010126
3180.000000	88.076714
3178.000000	88.146387
3176.000000	88.224410
3174.000000	88.300897
3172.000000	88.374240
3170.000000	88.446840
3168.000000	88.522859
3166.000000	88.599673
3164.000000	88.675682
3162.000000	88.752248
3160.000000	88.831252
3158.000000	88.909815
3156.000000	88.985626
3154.000000	89.054727
3152.000000	89.126585
3150.000000	89.212875
3148.000000	89.300961
3146.000000	89.380478
3144.000000	89.455796
3142.000000	89.527493
3140.000000	89.596190
3138.000000	89.666610
3136.000000	89.737321
3134.000000	89.802181
3132.000000	89.870738
3130.000000	89.940603
3128.000000	90.005277
3126.000000	90.066649
3124.000000	90.123585
3122.000000	90.172634
3120.000000	90.219073
3118.000000	90.266531
3116.000000	90.322583
3114.000000	90.391131
3112.000000	90.456402
3110.000000	90.507250
3108.000000	90.560217
3106.000000	90.621754
3104.000000	90.680539
3102.000000	90.735070
3100.000000	90.798180
3098.000000	90.866156
3096.000000	90.932230
3094.000000	90.999264
3092.000000	91.064012
3090.000000	91.123464
3088.000000	91.182206
3086.000000	91.234368
3084.000000	91.280134
3082.000000	91.321405
3080.000000	91.356928
3078.000000	91.396399
3076.000000	91.443774
3074.000000	91.479146
3072.000000	91.497492
3070.000000	91.503909
3068.000000	91.505759
3066.000000	91.520572
3064.000000	91.559371
3062.000000	91.612154
3060.000000	91.668725
3058.000000	91.723165
3056.000000	91.783238
3054.000000	91.849264
3052.000000	91.907173
3050.000000	91.956627
3048.000000	92.008009
3046.000000	92.051576
3044.000000	92.080222
3042.000000	92.104025
3040.000000	92.132252
3038.000000	92.153875
3036.000000	92.160416
3034.000000	92.155375
3032.000000	92.143477
3030.000000	92.115749
3028.000000	92.053325
3026.000000	91.946086
3024.000000	91.816193
3022.000000	91.698659
3020.000000	91.634044
3018.000000	91.660675
3016.000000	91.799290
3014.000000	92.032873
3012.000000	92.317684
3010.000000	92.599686
3008.000000	92.832421
3006.000000	92.995914
3004.000000	93.109962
3002.000000	93.192689
3000.000000	93.251083
2998.000000	93.289589
2996.000000	93.318698
2994.000000	93.338887
2992.000000	93.351811
2990.000000	93.354478
2988.000000	93.340620
2986.000000	93.306724
2984.000000	93.248942
2982.000000	93.159835
2980.000000	93.037638
2978.000000	92.872415
2976.000000	92.645927
2974.000000	92.339877
2972.000000	91.945693
2970.000000	91.464281
2968.000000	90.939330
2966.000000	90.453203
2964.000000	90.095996
2962.000000	89.923600
2960.000000	89.938068
2958.000000	90.082142
2956.000000	90.276687
2954.000000	90.459508
2952.000000	90.602282
2950.000000	90.674291
2948.000000	90.638090
2946.000000	90.470729
2944.000000	90.175071
2942.000000	89.764168
2940.000000	89.271758
2938.000000	88.756495
2936.000000	88.281798
2934.000000	87.860199
2932.000000	87.460679
2930.000000	87.068797
2928.000000	86.739590
2926.000000	86.576496
2924.000000	86.686190
2922.000000	87.107979
2920.000000	87.787061
2918.000000	88.606201
2916.000000	89.457581
2914.000000	90.258985
2912.000000	90.953933
2910.000000	91.510874
2908.000000	91.943330
2906.000000	92.291878
2904.000000	92.594869
2902.000000	92.870667
2900.000000	93.127456
2898.000000	93.366757
2896.000000	93.592814
2894.000000	93.808291
2892.000000	94.012442
2890.000000	94.199473
2888.000000	94.363097
2886.000000	94.491848
2884.000000	94.580450
2882.000000	94.623077
2880.000000	94.619868
2878.000000	94.566147
2876.000000	94.453440
2874.000000	94.272469
2872.000000	94.017653
2870.000000	93.658332
2868.000000	93.170984
2866.000000	92.593219
2864.000000	92.049650
2862.000000	91.694376
2860.000000	91.619360
2858.000000	91.789735
2856.000000	92.095306
2854.000000	92.454283
2852.000000	92.867286
2850.000000	93.374386
2848.000000	93.979403
2846.000000	94.600441
2844.000000	95.144285
2842.000000	95.576493
2840.000000	95.915231
2838.000000	96.186358
2836.000000	96.409283
2834.000000	96.592041
2832.000000	96.748109
2830.000000	96.883733
2828.000000	97.005836
2826.000000	97.117213
2824.000000	97.219988
2822.000000	97.312680
2820.000000	97.398978
2818.000000	97.477833
2816.000000	97.549042
2814.000000	97.610582
2812.000000	97.668093
2810.000000	97.721817
2808.000000	97.772558
2806.000000	97.820062
2804.000000	97.867359
2802.000000	97.910893
2800.000000	97.952838
2798.000000	97.992704
2796.000000	98.033364
2794.000000	98.075320
2792.000000	98.122745
2790.000000	98.178823
2788.000000	98.249778
2786.000000	98.330448
2784.000000	98.414425
2782.000000	98.494389
2780.000000	98.569740
2778.000000	98.637327
2776.000000	98.698759
2774.000000	98.755572
2772.000000	98.811366
2770.000000	98.864004
2768.000000	98.915617
2766.000000	98.964152
2764.000000	99.011720
2762.000000	99.057074
2760.000000	99.102710
2758.000000	99.146875
2756.000000	99.189886
2754.000000	99.230369
2752.000000	99.270999
2750.000000	99.308442
2748.000000	99.345020
2746.000000	99.380381
2744.000000	99.415874
2742.000000	99.450121
2740.000000	99.484707
2738.000000	99.517705
2736.000000	99.553250
2734.000000	99.587529
2732.000000	99.620807
2730.000000	99.651281
2728.000000	99.683539
2726.000000	99.715244
2724.000000	99.748054
2722.000000	99.780200
2720.000000	99.811705
2718.000000	99.840656
2716.000000	99.869566
2714.000000	99.896604
2712.000000	99.921940
2710.000000	99.945049
2708.000000	99.968828
2706.000000	99.993464
2704.000000	100.024706
2702.000000	100.060948
2700.000000	100.102656
2698.000000	100.147229
2696.000000	100.194428
2694.000000	100.240186
2692.000000	100.284968
2690.000000	100.326497
2688.000000	100.367398
2686.000000	100.405931
2684.000000	100.444353
2682.000000	100.479209
2680.000000	100.513807
2678.000000	100.547801
2676.000000	100.581314
2674.000000	100.612588
2672.000000	100.644455
2670.000000	100.673032
2668.000000	100.701964
2666.000000	100.730508
2664.000000	100.758889
2662.000000	100.786335
2660.000000	100.815929
2658.000000	100.845395
2656.000000	100.878906
2654.000000	100.914333
2652.000000	100.952234
2650.000000	100.990754
2648.000000	101.031846
2646.000000	101.070774
2644.000000	101.108049
2642.000000	101.142414
2640.000000	101.178121
2638.000000	101.212650
2636.000000	101.247419
2634.000000	101.279604
2632.000000	101.311085
2630.000000	101.338565
2628.000000	101.365474
2626.000000	101.392445
2624.000000	101.421279
2622.000000	101.448262
2620.000000	101.476734
2618.000000	101.503204
2616.000000	101.529586
2614.000000	101.554076
2612.000000	101.577814
2610.000000	101.597956
2608.000000	101.616755
2606.000000	101.633515
2604.000000	101.650314
2602.000000	101.662867
2600.000000	101.673018
2598.000000	101.680309
2596.000000	101.689537
2594.000000	101.702092
2592.000000	101.725110
2590.000000	101.757109
2588.000000	101.799758
2586.000000	101.849831
2584.000000	101.908546
2582.000000	101.969977
2580.000000	102.031676
2578.000000	102.089045
2576.000000	102.143635
2574.000000	102.190796
2572.000000	102.233396
2570.000000	102.272218
2568.000000	102.309713
2566.000000	102.342859
2564.000000	102.375796
2562.000000	102.406133
2560.000000	102.435791
2558.000000	102.462808
2556.000000	102.490632
2554.000000	102.515885
2552.000000	102.541514
2550.000000	102.565485
2548.000000	102.591991
2546.000000	102.617250
2544.000000	102.642805
2542.000000	102.667430
2540.000000	102.694114
2538.000000	102.719698
2536.000000	102.746048
2534.000000	102.771100
2532.000000	102.798423
2530.000000	102.824449
2528.000000	102.850503
2526.000000	102.873196
2524.000000	102.897013
2522.000000	102.919705
2520.000000	102.943697
2518.000000	102.966092
2516.000000	102.990547
2514.000000	103.012851
2512.000000	103.034718
2510.000000	103.054912
2508.000000	103.076955
2506.000000	103.097067
2504.000000	103.117426
2502.000000	103.136796
2500.000000	103.160103
2498.000000	103.184508
2496.000000	103.210988
2494.000000	103.236072
2492.000000	103.262737
2490.000000	103.286775
2488.000000	103.311622
2486.000000	103.336882
2484.000000	103.363775
2482.000000	103.388984
2480.000000	103.415428
2478.000000	103.438523
2476.000000	103.460464
2474.000000	103.479683
2472.000000	103.501555
2470.000000	103.520104
2468.000000	103.537028
2466.000000	103.551917
2464.000000	103.568922
2462.000000	103.584622
2460.000000	103.601178
2458.000000	103.615851
2456.000000	103.632513
2454.000000	103.647949
2452.000000	103.665201
2450.000000	103.680269
2448.000000	103.696622
2446.000000	103.711953
2444.000000	103.729181
2442.000000	103.743879
2440.000000	103.758584
2438.000000	103.771946
2436.000000	103.786725
2434.000000	103.798310
2432.000000	103.812050
2430.000000	103.823515
2428.000000	103.834336
2426.000000	103.845603
2424.000000	103.862616
2422.000000	103.878021
2420.000000	103.892238
2418.000000	103.903121
2416.000000	103.916144
2414.000000	103.926122
2412.000000	103.936977
2410.000000	103.948156
2408.000000	103.962366
2406.000000	103.975100
2404.000000	103.989719
2402.000000	104.002399
2400.000000	104.017365
2398.000000	104.033603
2396.000000	104.052311
2394.000000	104.069110
2392.000000	104.087438
2390.000000	104.101571
2388.000000	104.113493
2386.000000	104.115713
2384.000000	104.102730
2382.000000	104.060944
2380.000000	103.980359
2378.000000	103.847334
2376.000000	103.662803
2374.000000	103.424639
2372.000000	103.148285
2370.000000	102.854806
2368.000000	102.576127
2366.000000	102.343373
2364.000000	102.192442
2362.000000	102.140675
2360.000000	102.202085
2358.000000	102.377784
2356.000000	102.664293
2354.000000	103.035848
2352.000000	103.450681
2350.000000	103.751483
2348.000000	103.735449
2346.000000	103.464793
2344.000000	103.176036
2342.000000	102.965454
2340.000000	102.844186
2338.000000	102.790998
2336.000000	102.789689
2334.000000	102.823873
2332.000000	102.893729
2330.000000	102.993990
2328.000000	103.119778
2326.000000	103.256352
2324.000000	103.398766
2322.000000	103.538427
2320.000000	103.674199
2318.000000	103.796507
2316.000000	103.907730
2314.000000	104.003637
2312.000000	104.087330
2310.000000	104.157169
2308.000000	104.218500
2306.000000	104.266571
2304.000000	104.306260
2302.000000	104.335731
2300.000000	104.364304
2298.000000	104.386879
2296.000000	104.406956
2294.000000	104.422339
2292.000000	104.438605
2290.000000	104.451043
2288.000000	104.464268
2286.000000	104.474264
2284.000000	104.482570
2282.000000	104.481948
2280.000000	104.479386
2278.000000	104.474066
2276.000000	104.471074
2274.000000	104.463721
2272.000000	104.457861
2270.000000	104.450859
2268.000000	104.445681
2266.000000	104.440059
2264.000000	104.437907
2262.000000	104.433066
2260.000000	104.431762
2258.000000	104.429628
2256.000000	104.431819
2254.000000	104.432611
2252.000000	104.436563
2250.000000	104.441463
2248.000000	104.450543
2246.000000	104.459068
2244.000000	104.471481
2242.000000	104.482182
2240.000000	104.496418
2238.000000	104.508564
2236.000000	104.522430
2234.000000	104.534104
2232.000000	104.549287
2230.000000	104.561295
2228.000000	104.574454
2226.000000	104.585414
2224.000000	104.596422
2222.000000	104.603269
2220.000000	104.612620
2218.000000	104.619266
2216.000000	104.626369
2214.000000	104.629552
2212.000000	104.635702
2210.000000	104.639624
2208.000000	104.645586
2206.000000	104.649043
2204.000000	104.655689
2202.000000	104.659369
2200.000000	104.664833
2198.000000	104.666395
2196.000000	104.670549
2194.000000	104.671454
2192.000000	104.673184
2190.000000	104.671228
2188.000000	104.672341
2186.000000	104.672531
2184.000000	104.673661
2182.000000	104.670393
2180.000000	104.669906
2178.000000	104.667126
2176.000000	104.665743
2174.000000	104.654814
2172.000000	104.632363
2170.000000	104.607099
2168.000000	104.618193
2166.000000	104.639723
2164.000000	104.649002
2162.000000	104.647466
2160.000000	104.646781
2158.000000	104.643999
2156.000000	104.645981
2154.000000	104.644057
2152.000000	104.642919
2150.000000	104.638533
2148.000000	104.639650
2146.000000	104.639420
2144.000000	104.640441
2142.000000	104.636691
2140.000000	104.634749
2138.000000	104.629995
2136.000000	104.629178
2134.000000	104.628167
2132.000000	104.628307
2130.000000	104.625644
2128.000000	104.626636
2126.000000	104.623953
2124.000000	104.624122
2122.000000	104.625162
2120.000000	104.628520
2118.000000	104.628412
2116.000000	104.631114
2114.000000	104.636251
2112.000000	104.647155
2110.000000	104.657791
2108.000000	104.672554
2106.000000	104.684334
2104.000000	104.697823
2102.000000	104.708151
2100.000000	104.721116
2098.000000	104.731764
2096.000000	104.746863
2094.000000	104.757675
2092.000000	104.767550
2090.000000	104.774412
2088.000000	104.794033
2086.000000	104.810651
2084.000000	104.829480
2082.000000	104.843130
2080.000000	104.860832
2078.000000	104.873869
2076.000000	104.891691
2074.000000	104.905682
2072.000000	104.926048
2070.000000	104.943156
2068.000000	104.957619
2066.000000	104.960801
2064.000000	104.984718
2062.000000	105.017835
2060.000000	105.045445
2058.000000	105.066384
2056.000000	105.090370
2054.000000	105.109007
2052.000000	105.129866
2050.000000	105.148525
2048.000000	105.170223
2046.000000	105.185186
2044.000000	105.198419
2042.000000	105.205525
2040.000000	105.230044
2038.000000	105.253322
2036.000000	105.268827
2034.000000	105.275985
2032.000000	105.277618
2030.000000	105.259763
2028.000000	105.269427
2026.000000	105.303518
2024.000000	105.326372
2022.000000	105.332591
2020.000000	105.327593
2018.000000	105.308865
2016.000000	105.336048
2014.000000	105.386404
2012.000000	105.417033
2010.000000	105.430312
2008.000000	105.444326
2006.000000	105.456083
2004.000000	105.470100
2002.000000	105.475362
2000.000000	105.478737
1998.000000	105.482450
1996.000000	105.483485
1994.000000	105.424521
1992.000000	105.372516
1990.000000	105.412314
1988.000000	105.458162
1986.000000	105.474854
1984.000000	105.477910
1982.000000	105.465379
1980.000000	105.453829
1978.000000	105.438880
1976.000000	105.426366
1974.000000	105.409633
1972.000000	105.391192
1970.000000	105.343271
1968.000000	105.270164
1966.000000	105.254449
1964.000000	105.275839
1962.000000	105.225029
1960.000000	105.104955
1958.000000	105.072887
1956.000000	105.151906
1954.000000	105.179206
1952.000000	105.164025
1950.000000	105.130506
1948.000000	105.101518
1946.000000	105.039021
1944.000000	104.916224
1942.000000	104.870674
1940.000000	104.974801
1938.000000	105.012662
1936.000000	104.993374
1934.000000	104.958037
1932.000000	104.934097
1930.000000	104.905936
1928.000000	104.879110
1926.000000	104.809424
1924.000000	104.689472
1922.000000	104.625117
1920.000000	104.504323
1918.000000	104.345445
1916.000000	104.485752
1914.000000	104.587179
1912.000000	104.523895
1910.000000	104.417754
1908.000000	104.384349
1906.000000	104.368165
1904.000000	104.334084
1902.000000	104.280370
1900.000000	104.238362
1898.000000	104.165870
1896.000000	104.083095
1894.000000	104.047193
1892.000000	103.984519
1890.000000	103.844252
1888.000000	103.902103
1886.000000	103.989292
1884.000000	103.994843
1882.000000	103.976912
1880.000000	103.962380
1878.000000	103.936035
1876.000000	103.919140
1874.000000	103.873851
1872.000000	103.686239
1870.000000	103.306030
1868.000000	103.272553
1866.000000	103.551902
1864.000000	103.699033
1862.000000	103.685963
1860.000000	103.653439
1858.000000	103.620751
1856.000000	103.603197
1854.000000	103.565199
1852.000000	103.527815
1850.000000	103.435886
1848.000000	103.247490
1846.000000	102.713076
1844.000000	102.392720
1842.000000	102.868137
1840.000000	103.192925
1838.000000	103.140969
1836.000000	103.091117
1834.000000	103.014385
1832.000000	102.690578
1830.000000	102.363848
1828.000000	102.451154
1826.000000	102.420475
1824.000000	102.454478
1822.000000	102.620155
1820.000000	102.615137
1818.000000	102.518657
1816.000000	102.459640
1814.000000	102.358575
1812.000000	102.159605
1810.000000	102.043717
1808.000000	102.058995
1806.000000	102.006101
1804.000000	101.805462
1802.000000	101.479130
1800.000000	101.334695
1798.000000	101.379495
1796.000000	101.242266
1794.000000	100.599413
1792.000000	100.256986
1790.000000	100.691326
1788.000000	100.938203
1786.000000	100.704300
1784.000000	100.555872
1782.000000	100.471213
1780.000000	100.372265
1778.000000	100.337473
1776.000000	100.006098
1774.000000	99.080877
1772.000000	98.629686
1770.000000	99.090617
1768.000000	99.362947
1766.000000	99.638166
1764.000000	99.474726
1762.000000	99.053901
1760.000000	99.124838
1758.000000	99.062859
1756.000000	98.934229
1754.000000	98.710213
1752.000000	97.910680
1750.000000	97.668871
1748.000000	97.959319
1746.000000	98.081390
1744.000000	97.945388
1742.000000	97.564431
1740.000000	97.190838
1738.000000	97.178144
1736.000000	96.166157
1734.000000	95.131718
1732.000000	96.150317
1730.000000	97.118246
1728.000000	97.374237
1726.000000	97.384796
1724.000000	97.276882
1722.000000	97.080961
1720.000000	96.098259
1718.000000	94.737634
1716.000000	95.018974
1714.000000	96.057721
1712.000000	96.588127
1710.000000	96.549813
1708.000000	96.183447
1706.000000	95.724865
1704.000000	95.482154
1702.000000	94.201408
1700.000000	93.254266
1698.000000	93.628907
1696.000000	93.546167
1694.000000	94.761147
1692.000000	95.829393
1690.000000	95.763417
1688.000000	95.232844
1686.000000	93.495714
1684.000000	92.841769
1682.000000	94.421711
1680.000000	95.339928
1678.000000	95.153107
1676.000000	94.412209
1674.000000	94.424392
1672.000000	94.510788
1670.000000	94.057143
1668.000000	94.361139
1666.000000	94.801465
1664.000000	94.442237
1662.000000	94.272591
1660.000000	94.584874
1658.000000	94.490168
1656.000000	93.046094
1654.000000	90.354952
1652.000000	90.582167
1650.000000	92.737919
1648.000000	92.609011
1646.000000	92.237928
1644.000000	93.075351
1642.000000	93.572353
1640.000000	93.320844
1638.000000	92.336156
1636.000000	91.185946
1634.000000	91.737491
1632.000000	92.630307
1630.000000	92.477837
1628.000000	92.035443
1626.000000	91.600495
1624.000000	90.940116
1622.000000	90.661816
1620.000000	90.310501
1618.000000	88.963481
1616.000000	88.413928
1614.000000	88.970276
1612.000000	88.714881
1610.000000	88.072081
1608.000000	87.749018
1606.000000	87.804280
1604.000000	88.003317
1602.000000	88.251707
1600.000000	88.501910
1598.000000	88.709366
1596.000000	88.840408
1594.000000	88.954311
1592.000000	89.033957
1590.000000	89.046190
1588.000000	89.014797
1586.000000	88.949468
1584.000000	88.873042
1582.000000	88.817152
1580.000000	88.614710
1578.000000	87.550253
1576.000000	86.805091
1574.000000	87.794264
1572.000000	88.115449
1570.000000	87.570491
1568.000000	87.682815
1566.000000	87.822539
1564.000000	87.491469
1562.000000	86.069790
1560.000000	83.706867
1558.000000	83.756003
1556.000000	85.460785
1554.000000	86.384161
1552.000000	87.077194
1550.000000	87.450399
1548.000000	87.638248
1546.000000	87.396250
1544.000000	86.814322
1542.000000	85.822499
1540.000000	85.268410
1538.000000	86.782246
1536.000000	88.275605
1534.000000	88.270276
1532.000000	88.645084
1530.000000	89.033239
1528.000000	88.783431
1526.000000	88.404016
1524.000000	87.938238
1522.000000	87.068523
1520.000000	87.253172
1518.000000	87.771286
1516.000000	87.831619
1514.000000	87.894282
1512.000000	87.680843
1510.000000	87.004201
1508.000000	85.275439
1506.000000	84.482626
1504.000000	85.367838
1502.000000	84.923499
1500.000000	82.367507
1498.000000	78.865717
1496.000000	76.346709
1494.000000	76.195108
1492.000000	77.279056
1490.000000	78.895988
1488.000000	80.905251
1486.000000	82.648817
1484.000000	83.793143
1482.000000	84.303998
1480.000000	84.538502
1478.000000	84.385575
1476.000000	83.862669
1474.000000	83.094977
1472.000000	82.923908
1470.000000	83.501928
1468.000000	83.479979
1466.000000	82.745212
1464.000000	82.351604
1462.000000	82.206538
1460.000000	81.049855
1458.000000	78.914025
1456.000000	77.941338
1454.000000	78.130166
1452.000000	77.854348
1450.000000	77.901168
1448.000000	78.677180
1446.000000	79.724741
1444.000000	80.277227
1442.000000	80.403951
1440.000000	80.222462
1438.000000	79.554355
1436.000000	79.461164
1434.000000	80.198402
1432.000000	80.363000
1430.000000	80.266816
1428.000000	80.338460
1426.000000	80.362300
1424.000000	80.212272
1422.000000	79.876015
1420.000000	79.100924
1418.000000	79.107683
1416.000000	79.557382
1414.000000	79.542355
1412.000000	79.192257
1410.000000	78.670729
1408.000000	77.904889
1406.000000	77.032583
1404.000000	76.562125
1402.000000	76.597835
1400.000000	76.729424
1398.000000	77.118632
1396.000000	77.453801
1394.000000	77.795003
1392.000000	78.268958
1390.000000	78.274323
1388.000000	77.843008
1386.000000	77.619808
1384.000000	77.640041
1382.000000	77.765682
1380.000000	77.852785
1378.000000	77.779917
1376.000000	77.568125
1374.000000	77.398112
1372.000000	77.424459
1370.000000	77.364852
1368.000000	77.210668
1366.000000	77.043187
1364.000000	76.737151
1362.000000	76.523586
1360.000000	76.500645
1358.000000	76.424564
1356.000000	76.234521
1354.000000	76.029401
1352.000000	75.828785
1350.000000	75.611217
1348.000000	75.392647
1346.000000	75.169544
1344.000000	74.918731
1342.000000	74.608312
1340.000000	74.302963
1338.000000	74.176015
1336.000000	74.148832
1334.000000	74.082170
1332.000000	73.936404
1330.000000	73.745298
1328.000000	73.524537
1326.000000	73.282120
1324.000000	73.015231
1322.000000	72.724262
1320.000000	72.402355
1318.000000	72.100014
1316.000000	71.812587
1314.000000	71.505439
1312.000000	71.197034
1310.000000	70.892735
1308.000000	70.568029
1306.000000	70.240773
1304.000000	69.900988
1302.000000	69.556450
1300.000000	69.210521
1298.000000	68.864148
1296.000000	68.508744
1294.000000	68.145440
1292.000000	67.760350
1290.000000	67.362417
1288.000000	66.957350
1286.000000	66.559882
1284.000000	66.149462
1282.000000	65.720004
1280.000000	65.263161
1278.000000	64.775528
1276.000000	64.235784
1274.000000	63.618867
1272.000000	62.885670
1270.000000	62.001382
1268.000000	60.898876
1266.000000	59.579884
1264.000000	58.207496
1262.000000	57.106840
1260.000000	56.554294
1258.000000	56.563546
1256.000000	56.854455
1254.000000	57.097331
1252.000000	57.094635
1250.000000	56.851664
1248.000000	56.455333
1246.000000	55.983886
1244.000000	55.474474
1242.000000	54.959590
1240.000000	54.449415
1238.000000	53.956168
1236.000000	53.478229
1234.000000	53.015554
1232.000000	52.561847
1230.000000	52.115429
1228.000000	51.666919
1226.000000	51.214327
1224.000000	50.754195
1222.000000	50.283163
1220.000000	49.788877
1218.000000	49.276497
1216.000000	48.754070
1214.000000	48.239787
1212.000000	47.747244
1210.000000	47.293689
1208.000000	46.875443
1206.000000	46.478643
1204.000000	46.080757
1202.000000	45.682384
1200.000000	45.287248
1198.000000	44.899389
1196.000000	44.506947
1194.000000	44.101286
1192.000000	43.680075
1190.000000	43.250041
1188.000000	42.806966
1186.000000	42.337394
1184.000000	41.754477
1182.000000	41.025194
1180.000000	40.458492
1178.000000	40.211091
1176.000000	39.976882
1174.000000	39.618262
1172.000000	39.192070
1170.000000	38.745369
1168.000000	38.280172
1166.000000	37.805685
1164.000000	37.333726
1162.000000	36.872343
1160.000000	36.416829
1158.000000	35.980596
1156.000000	35.558381
1154.000000	35.138625
1152.000000	34.712350
1150.000000	34.292594
1148.000000	33.863326
1146.000000	33.424749
1144.000000	32.994787
1142.000000	32.615019
1140.000000	32.301120
1138.000000	31.988010
1136.000000	31.630181
1134.000000	31.239735
1132.000000	30.823851
1130.000000	30.396886
1128.000000	29.973976
1126.000000	29.556293
1124.000000	29.128155
1122.000000	28.689418
1120.000000	28.239346
1118.000000	27.783298
1116.000000	27.317093
1114.000000	26.847666
1112.000000	26.378677
1110.000000	25.916242
1108.000000	25.462101
1106.000000	25.028610
1104.000000	24.611888
1102.000000	24.200754
1100.000000	23.786686
1098.000000	23.378016
1096.000000	22.980057
1094.000000	22.598385
1092.000000	22.231853
1090.000000	21.880926
1088.000000	21.537582
1086.000000	21.199605
1084.000000	20.851878
1082.000000	20.496260
1080.000000	20.158788
1078.000000	19.853094
1076.000000	19.576165
1074.000000	19.343839
1072.000000	19.127195
1070.000000	18.902609
1068.000000	18.674336
1066.000000	18.445599
1064.000000	18.212406
1062.000000	17.977571
1060.000000	17.731684
1058.000000	17.445947
1056.000000	17.056833
1054.000000	16.543793
1052.000000	16.036537
1050.000000	15.737532
1048.000000	15.702745
1046.000000	15.784041
1044.000000	15.786043
1042.000000	15.669477
1040.000000	15.484449
1038.000000	15.272651
1036.000000	15.045789
1034.000000	14.807542
1032.000000	14.558730
1030.000000	14.302338
1028.000000	14.036395
1026.000000	13.766800
1024.000000	13.495254
1022.000000	13.227649
1020.000000	12.971714
1018.000000	12.737232
1016.000000	12.524573
1014.000000	12.337270
1012.000000	12.167436
1010.000000	12.007114
1008.000000	11.842252
1006.000000	11.664110
1004.000000	11.467566
1002.000000	11.255880
1000.000000	11.027654
