PE IR       SUBTECH     SPECTRUM    ASCII       PEDS        4.00        
   -1
TE110A_010_80K_SB.ASC
20/05/14
11:52:50.00
20/05/14
11:52:50.00
Administrator
TE108A.Thursday, May 14 2020, 005.
1000.000000
#HDR
-1
-1
#GR
cm-1
EGY
1.0
0.0
6000.000000
-2.000000
2501
8
14.687126
1.551281
#DATA
6000.000000	2.419261
5998.000000	2.423589
5996.000000	2.427952
5994.000000	2.432807
5992.000000	2.437948
5990.000000	2.442885
5988.000000	2.446434
5986.000000	2.450217
5984.000000	2.455098
5982.000000	2.460910
5980.000000	2.466132
5978.000000	2.471448
5976.000000	2.476486
5974.000000	2.482490
5972.000000	2.488488
5970.000000	2.493632
5968.000000	2.497600
5966.000000	2.501040
5964.000000	2.504027
5962.000000	2.508166
5960.000000	2.513534
5958.000000	2.519452
5956.000000	2.525333
5954.000000	2.530168
5952.000000	2.535122
5950.000000	2.540333
5948.000000	2.545231
5946.000000	2.550025
5944.000000	2.554387
5942.000000	2.558839
5940.000000	2.563735
5938.000000	2.569541
5936.000000	2.575026
5934.000000	2.579341
5932.000000	2.583348
5930.000000	2.588121
5928.000000	2.594171
5926.000000	2.599292
5924.000000	2.603461
5922.000000	2.607054
5920.000000	2.612289
5918.000000	2.618558
5916.000000	2.623685
5914.000000	2.628090
5912.000000	2.632269
5910.000000	2.638245
5908.000000	2.644450
5906.000000	2.650016
5904.000000	2.655263
5902.000000	2.659523
5900.000000	2.663891
5898.000000	2.668499
5896.000000	2.673936
5894.000000	2.679459
5892.000000	2.684367
5890.000000	2.688868
5888.000000	2.693628
5886.000000	2.698052
5884.000000	2.703098
5882.000000	2.709144
5880.000000	2.715530
5878.000000	2.720960
5876.000000	2.725752
5874.000000	2.730647
5872.000000	2.736277
5870.000000	2.742093
5868.000000	2.746826
5866.000000	2.752008
5864.000000	2.757710
5862.000000	2.764026
5860.000000	2.769907
5858.000000	2.774712
5856.000000	2.779565
5854.000000	2.784667
5852.000000	2.790096
5850.000000	2.794980
5848.000000	2.801113
5846.000000	2.807429
5844.000000	2.813044
5842.000000	2.818593
5840.000000	2.824174
5838.000000	2.830314
5836.000000	2.835139
5834.000000	2.840695
5832.000000	2.847201
5830.000000	2.853842
5828.000000	2.859548
5826.000000	2.865130
5824.000000	2.871531
5822.000000	2.877985
5820.000000	2.883854
5818.000000	2.889141
5816.000000	2.894386
5814.000000	2.899602
5812.000000	2.905749
5810.000000	2.912069
5808.000000	2.917566
5806.000000	2.922764
5804.000000	2.928778
5802.000000	2.935009
5800.000000	2.940685
5798.000000	2.945391
5796.000000	2.951309
5794.000000	2.957451
5792.000000	2.962918
5790.000000	2.968258
5788.000000	2.974346
5786.000000	2.981372
5784.000000	2.988380
5782.000000	2.994252
5780.000000	2.998749
5778.000000	3.003909
5776.000000	3.009539
5774.000000	3.016766
5772.000000	3.024107
5770.000000	3.030588
5768.000000	3.036523
5766.000000	3.041344
5764.000000	3.046406
5762.000000	3.052732
5760.000000	3.059143
5758.000000	3.066030
5756.000000	3.072511
5754.000000	3.079313
5752.000000	3.085059
5750.000000	3.090128
5748.000000	3.094890
5746.000000	3.100333
5744.000000	3.106700
5742.000000	3.113196
5740.000000	3.119015
5738.000000	3.123591
5736.000000	3.128018
5734.000000	3.133747
5732.000000	3.140819
5730.000000	3.147804
5728.000000	3.153178
5726.000000	3.158472
5724.000000	3.164568
5722.000000	3.171621
5720.000000	3.177721
5718.000000	3.182726
5716.000000	3.187953
5714.000000	3.194477
5712.000000	3.201591
5710.000000	3.207935
5708.000000	3.213891
5706.000000	3.219897
5704.000000	3.226015
5702.000000	3.231351
5700.000000	3.236665
5698.000000	3.243448
5696.000000	3.251237
5694.000000	3.258235
5692.000000	3.264129
5690.000000	3.270359
5688.000000	3.277732
5686.000000	3.285084
5684.000000	3.291534
5682.000000	3.297566
5680.000000	3.303759
5678.000000	3.310930
5676.000000	3.317658
5674.000000	3.324571
5672.000000	3.331527
5670.000000	3.337452
5668.000000	3.343084
5666.000000	3.348528
5664.000000	3.355580
5662.000000	3.363573
5660.000000	3.370099
5658.000000	3.375983
5656.000000	3.381450
5654.000000	3.388172
5652.000000	3.395533
5650.000000	3.402779
5648.000000	3.410051
5646.000000	3.416920
5644.000000	3.423174
5642.000000	3.429081
5640.000000	3.434832
5638.000000	3.440626
5636.000000	3.447637
5634.000000	3.455042
5632.000000	3.461068
5630.000000	3.466413
5628.000000	3.472290
5626.000000	3.479160
5624.000000	3.485971
5622.000000	3.492087
5620.000000	3.497931
5618.000000	3.504007
5616.000000	3.511677
5614.000000	3.519768
5612.000000	3.526587
5610.000000	3.532688
5608.000000	3.538423
5606.000000	3.544661
5604.000000	3.550619
5602.000000	3.557185
5600.000000	3.563995
5598.000000	3.570583
5596.000000	3.577020
5594.000000	3.583783
5592.000000	3.591754
5590.000000	3.598882
5588.000000	3.605135
5586.000000	3.611641
5584.000000	3.618774
5582.000000	3.625605
5580.000000	3.631362
5578.000000	3.637327
5576.000000	3.644156
5574.000000	3.650624
5572.000000	3.657616
5570.000000	3.664820
5568.000000	3.671662
5566.000000	3.678517
5564.000000	3.685822
5562.000000	3.693749
5560.000000	3.701442
5558.000000	3.708240
5556.000000	3.714828
5554.000000	3.722108
5552.000000	3.729647
5550.000000	3.735320
5548.000000	3.740400
5546.000000	3.746695
5544.000000	3.754534
5542.000000	3.761768
5540.000000	3.767828
5538.000000	3.774397
5536.000000	3.782442
5534.000000	3.790445
5532.000000	3.797021
5530.000000	3.803228
5528.000000	3.809492
5526.000000	3.815827
5524.000000	3.821834
5522.000000	3.828135
5520.000000	3.835358
5518.000000	3.842761
5516.000000	3.850061
5514.000000	3.856537
5512.000000	3.862162
5510.000000	3.867995
5508.000000	3.874140
5506.000000	3.881154
5504.000000	3.889139
5502.000000	3.897388
5500.000000	3.904883
5498.000000	3.910884
5496.000000	3.916292
5494.000000	3.921734
5492.000000	3.927584
5490.000000	3.934936
5488.000000	3.942805
5486.000000	3.951061
5484.000000	3.959313
5482.000000	3.968026
5480.000000	3.975151
5478.000000	3.979068
5476.000000	3.983325
5474.000000	3.990165
5472.000000	3.999056
5470.000000	4.007394
5468.000000	4.015488
5466.000000	4.022836
5464.000000	4.028715
5462.000000	4.034808
5460.000000	4.042340
5458.000000	4.050071
5456.000000	4.057932
5454.000000	4.065776
5452.000000	4.073138
5450.000000	4.078840
5448.000000	4.083894
5446.000000	4.089489
5444.000000	4.096202
5442.000000	4.104803
5440.000000	4.113681
5438.000000	4.120064
5436.000000	4.125300
5434.000000	4.130718
5432.000000	4.136918
5430.000000	4.143594
5428.000000	4.151954
5426.000000	4.162136
5424.000000	4.171962
5422.000000	4.179660
5420.000000	4.185469
5418.000000	4.189686
5416.000000	4.193457
5414.000000	4.197904
5412.000000	4.204142
5410.000000	4.213179
5408.000000	4.223796
5406.000000	4.234358
5404.000000	4.242801
5402.000000	4.249675
5400.000000	4.255333
5398.000000	4.260201
5396.000000	4.264748
5394.000000	4.271056
5392.000000	4.280099
5390.000000	4.289781
5388.000000	4.297189
5386.000000	4.303638
5384.000000	4.311644
5382.000000	4.320945
5380.000000	4.327309
5378.000000	4.331060
5376.000000	4.337201
5374.000000	4.347096
5372.000000	4.358632
5370.000000	4.368088
5368.000000	4.375179
5366.000000	4.381269
5364.000000	4.388072
5362.000000	4.396128
5360.000000	4.403100
5358.000000	4.407623
5356.000000	4.411308
5354.000000	4.417033
5352.000000	4.425390
5350.000000	4.433888
5348.000000	4.439526
5346.000000	4.444580
5344.000000	4.452169
5342.000000	4.460720
5340.000000	4.467403
5338.000000	4.473851
5336.000000	4.482684
5334.000000	4.492814
5332.000000	4.500618
5330.000000	4.506457
5328.000000	4.513454
5326.000000	4.521915
5324.000000	4.531236
5322.000000	4.540127
5320.000000	4.547498
5318.000000	4.554694
5316.000000	4.561495
5314.000000	4.569763
5312.000000	4.577543
5310.000000	4.583337
5308.000000	4.589220
5306.000000	4.595898
5304.000000	4.604391
5302.000000	4.612649
5300.000000	4.621122
5298.000000	4.629681
5296.000000	4.637490
5294.000000	4.643161
5292.000000	4.647845
5290.000000	4.654795
5288.000000	4.663807
5286.000000	4.672370
5284.000000	4.679115
5282.000000	4.686009
5280.000000	4.694298
5278.000000	4.702853
5276.000000	4.711787
5274.000000	4.719339
5272.000000	4.725367
5270.000000	4.731396
5268.000000	4.737999
5266.000000	4.743428
5264.000000	4.748499
5262.000000	4.756882
5260.000000	4.767858
5258.000000	4.777009
5256.000000	4.783507
5254.000000	4.790830
5252.000000	4.798467
5250.000000	4.804564
5248.000000	4.809605
5246.000000	4.816664
5244.000000	4.825886
5242.000000	4.835192
5240.000000	4.844145
5238.000000	4.853410
5236.000000	4.861166
5234.000000	4.867199
5232.000000	4.872753
5230.000000	4.879722
5228.000000	4.886837
5226.000000	4.893734
5224.000000	4.900993
5222.000000	4.909231
5220.000000	4.917439
5218.000000	4.925990
5216.000000	4.934696
5214.000000	4.942544
5212.000000	4.948537
5210.000000	4.953257
5208.000000	4.958595
5206.000000	4.967094
5204.000000	4.978345
5202.000000	4.988661
5200.000000	4.995369
5198.000000	5.001651
5196.000000	5.010205
5194.000000	5.019936
5192.000000	5.028430
5190.000000	5.035497
5188.000000	5.041978
5186.000000	5.048800
5184.000000	5.057034
5182.000000	5.065882
5180.000000	5.074243
5178.000000	5.082643
5176.000000	5.091747
5174.000000	5.100581
5172.000000	5.107462
5170.000000	5.113661
5168.000000	5.121042
5166.000000	5.128918
5164.000000	5.137198
5162.000000	5.145460
5160.000000	5.154045
5158.000000	5.161914
5156.000000	5.169723
5154.000000	5.177211
5152.000000	5.184452
5150.000000	5.191540
5148.000000	5.199104
5146.000000	5.206977
5144.000000	5.215165
5142.000000	5.223155
5140.000000	5.230273
5138.000000	5.237604
5136.000000	5.245642
5134.000000	5.253955
5132.000000	5.261922
5130.000000	5.270435
5128.000000	5.279014
5126.000000	5.286229
5124.000000	5.293329
5122.000000	5.301108
5120.000000	5.308884
5118.000000	5.316119
5116.000000	5.323892
5114.000000	5.332471
5112.000000	5.340579
5110.000000	5.347612
5108.000000	5.354378
5106.000000	5.362830
5104.000000	5.372454
5102.000000	5.380788
5100.000000	5.387029
5098.000000	5.393936
5096.000000	5.403445
5094.000000	5.413340
5092.000000	5.421927
5090.000000	5.430066
5088.000000	5.438301
5086.000000	5.446199
5084.000000	5.453556
5082.000000	5.461245
5080.000000	5.469090
5078.000000	5.477723
5076.000000	5.487642
5074.000000	5.496542
5072.000000	5.504177
5070.000000	5.511658
5068.000000	5.520060
5066.000000	5.528242
5064.000000	5.535702
5062.000000	5.543631
5060.000000	5.552184
5058.000000	5.560392
5056.000000	5.567872
5054.000000	5.575233
5052.000000	5.583037
5050.000000	5.590994
5048.000000	5.598494
5046.000000	5.605351
5044.000000	5.612767
5042.000000	5.621758
5040.000000	5.630530
5038.000000	5.638390
5036.000000	5.646037
5034.000000	5.654149
5032.000000	5.661833
5030.000000	5.669303
5028.000000	5.677661
5026.000000	5.687253
5024.000000	5.696884
5022.000000	5.705124
5020.000000	5.711559
5018.000000	5.718271
5016.000000	5.726658
5014.000000	5.736029
5012.000000	5.744150
5010.000000	5.752030
5008.000000	5.761406
5006.000000	5.770959
5004.000000	5.779493
5002.000000	5.787716
5000.000000	5.795642
4998.000000	5.803338
4996.000000	5.811209
4994.000000	5.819873
4992.000000	5.827824
4990.000000	5.836126
4988.000000	5.844891
4986.000000	5.853099
4984.000000	5.861133
4982.000000	5.870471
4980.000000	5.879828
4978.000000	5.887672
4976.000000	5.895339
4974.000000	5.903433
4972.000000	5.911467
4970.000000	5.920198
4968.000000	5.929473
4966.000000	5.937474
4964.000000	5.944294
4962.000000	5.952560
4960.000000	5.962078
4958.000000	5.969954
4956.000000	5.976486
4954.000000	5.983705
4952.000000	5.992260
4950.000000	6.000395
4948.000000	6.008377
4946.000000	6.016694
4944.000000	6.025148
4942.000000	6.032837
4940.000000	6.040214
4938.000000	6.048599
4936.000000	6.058030
4934.000000	6.066907
4932.000000	6.075183
4930.000000	6.083036
4928.000000	6.090825
4926.000000	6.098591
4924.000000	6.107127
4922.000000	6.115790
4920.000000	6.124084
4918.000000	6.131699
4916.000000	6.139069
4914.000000	6.147215
4912.000000	6.156121
4910.000000	6.164660
4908.000000	6.172581
4906.000000	6.181062
4904.000000	6.190669
4902.000000	6.200663
4900.000000	6.209916
4898.000000	6.217796
4896.000000	6.225362
4894.000000	6.233639
4892.000000	6.242521
4890.000000	6.251654
4888.000000	6.260452
4886.000000	6.268496
4884.000000	6.275842
4882.000000	6.283425
4880.000000	6.292423
4878.000000	6.303022
4876.000000	6.312870
4874.000000	6.320614
4872.000000	6.327619
4870.000000	6.335932
4868.000000	6.344922
4866.000000	6.354246
4864.000000	6.363309
4862.000000	6.372290
4860.000000	6.380236
4858.000000	6.387439
4856.000000	6.394606
4854.000000	6.402715
4852.000000	6.411397
4850.000000	6.419961
4848.000000	6.427661
4846.000000	6.435306
4844.000000	6.443217
4842.000000	6.451319
4840.000000	6.459739
4838.000000	6.468178
4836.000000	6.476228
4834.000000	6.484204
4832.000000	6.492492
4830.000000	6.500846
4828.000000	6.509315
4826.000000	6.518145
4824.000000	6.527190
4822.000000	6.536738
4820.000000	6.545796
4818.000000	6.554285
4816.000000	6.562313
4814.000000	6.570556
4812.000000	6.578902
4810.000000	6.587596
4808.000000	6.596431
4806.000000	6.606128
4804.000000	6.615404
4802.000000	6.622981
4800.000000	6.629537
4798.000000	6.637147
4796.000000	6.646709
4794.000000	6.656833
4792.000000	6.665989
4790.000000	6.674240
4788.000000	6.683280
4786.000000	6.692381
4784.000000	6.700945
4782.000000	6.709250
4780.000000	6.717765
4778.000000	6.726891
4776.000000	6.736164
4774.000000	6.744461
4772.000000	6.752849
4770.000000	6.763114
4768.000000	6.773532
4766.000000	6.782047
4764.000000	6.789153
4762.000000	6.795802
4760.000000	6.802779
4758.000000	6.810307
4756.000000	6.819214
4754.000000	6.828954
4752.000000	6.837916
4750.000000	6.845409
4748.000000	6.852724
4746.000000	6.860767
4744.000000	6.869284
4742.000000	6.877466
4740.000000	6.884914
4738.000000	6.892894
4736.000000	6.902022
4734.000000	6.911437
4732.000000	6.920124
4730.000000	6.928557
4728.000000	6.937488
4726.000000	6.946663
4724.000000	6.954479
4722.000000	6.962197
4720.000000	6.971507
4718.000000	6.981649
4716.000000	6.991000
4714.000000	7.000152
4712.000000	7.009057
4710.000000	7.017442
4708.000000	7.026071
4706.000000	7.035066
4704.000000	7.043883
4702.000000	7.052947
4700.000000	7.062203
4698.000000	7.070271
4696.000000	7.078999
4694.000000	7.089391
4692.000000	7.099084
4690.000000	7.106963
4688.000000	7.115719
4686.000000	7.125770
4684.000000	7.134989
4682.000000	7.143338
4680.000000	7.152177
4678.000000	7.161593
4676.000000	7.170471
4674.000000	7.179474
4672.000000	7.188322
4670.000000	7.196446
4668.000000	7.204394
4666.000000	7.213027
4664.000000	7.221466
4662.000000	7.230121
4660.000000	7.238556
4658.000000	7.246837
4656.000000	7.255421
4654.000000	7.264287
4652.000000	7.272659
4650.000000	7.281577
4648.000000	7.290873
4646.000000	7.299680
4644.000000	7.307434
4642.000000	7.315753
4640.000000	7.324941
4638.000000	7.334068
4636.000000	7.343217
4634.000000	7.353615
4632.000000	7.363068
4630.000000	7.370803
4628.000000	7.378948
4626.000000	7.387811
4624.000000	7.396375
4622.000000	7.405179
4620.000000	7.414202
4618.000000	7.423047
4616.000000	7.432341
4614.000000	7.441634
4612.000000	7.450377
4610.000000	7.459613
4608.000000	7.469106
4606.000000	7.478249
4604.000000	7.487692
4602.000000	7.498348
4600.000000	7.508660
4598.000000	7.517554
4596.000000	7.525419
4594.000000	7.534180
4592.000000	7.544420
4590.000000	7.554947
4588.000000	7.564517
4586.000000	7.573843
4584.000000	7.583498
4582.000000	7.593366
4580.000000	7.602238
4578.000000	7.610449
4576.000000	7.619424
4574.000000	7.629280
4572.000000	7.639023
4570.000000	7.647974
4568.000000	7.655670
4566.000000	7.663540
4564.000000	7.673160
4562.000000	7.683275
4560.000000	7.691938
4558.000000	7.699630
4556.000000	7.707494
4554.000000	7.716800
4552.000000	7.726537
4550.000000	7.735242
4548.000000	7.743071
4546.000000	7.752761
4544.000000	7.763097
4542.000000	7.771347
4540.000000	7.777968
4538.000000	7.786518
4536.000000	7.797449
4534.000000	7.807949
4532.000000	7.816095
4530.000000	7.824326
4528.000000	7.833336
4526.000000	7.842181
4524.000000	7.851438
4522.000000	7.861773
4520.000000	7.871550
4518.000000	7.880248
4516.000000	7.889011
4514.000000	7.898414
4512.000000	7.907538
4510.000000	7.916975
4508.000000	7.926294
4506.000000	7.934780
4504.000000	7.944019
4502.000000	7.954670
4500.000000	7.964445
4498.000000	7.973849
4496.000000	7.983901
4494.000000	7.994578
4492.000000	8.004110
4490.000000	8.012046
4488.000000	8.019764
4486.000000	8.028799
4484.000000	8.038388
4482.000000	8.048101
4480.000000	8.057508
4478.000000	8.066472
4476.000000	8.074573
4474.000000	8.083035
4472.000000	8.092945
4470.000000	8.103280
4468.000000	8.112183
4466.000000	8.120420
4464.000000	8.129191
4462.000000	8.138675
4460.000000	8.147913
4458.000000	8.156393
4456.000000	8.164059
4454.000000	8.172169
4452.000000	8.181469
4450.000000	8.190856
4448.000000	8.199441
4446.000000	8.208144
4444.000000	8.217658
4442.000000	8.226268
4440.000000	8.234006
4438.000000	8.243175
4436.000000	8.252799
4434.000000	8.261357
4432.000000	8.270321
4430.000000	8.279571
4428.000000	8.288180
4426.000000	8.297695
4424.000000	8.307887
4422.000000	8.316843
4420.000000	8.324441
4418.000000	8.333174
4416.000000	8.343287
4414.000000	8.352389
4412.000000	8.360094
4410.000000	8.368166
4408.000000	8.377053
4406.000000	8.386778
4404.000000	8.396672
4402.000000	8.406459
4400.000000	8.417290
4398.000000	8.427919
4396.000000	8.435698
4394.000000	8.442857
4392.000000	8.451741
4390.000000	8.461276
4388.000000	8.470835
4386.000000	8.480727
4384.000000	8.489767
4382.000000	8.498667
4380.000000	8.507951
4378.000000	8.516703
4376.000000	8.523995
4374.000000	8.531499
4372.000000	8.539955
4370.000000	8.548055
4368.000000	8.555043
4366.000000	8.562284
4364.000000	8.569978
4362.000000	8.578677
4360.000000	8.588211
4358.000000	8.597962
4356.000000	8.606947
4354.000000	8.615375
4352.000000	8.623926
4350.000000	8.632455
4348.000000	8.640882
4346.000000	8.650365
4344.000000	8.660245
4342.000000	8.669882
4340.000000	8.678964
4338.000000	8.687679
4336.000000	8.696161
4334.000000	8.705418
4332.000000	8.715661
4330.000000	8.725230
4328.000000	8.732988
4326.000000	8.741878
4324.000000	8.751842
4322.000000	8.761056
4320.000000	8.770163
4318.000000	8.780569
4316.000000	8.790960
4314.000000	8.801035
4312.000000	8.811020
4310.000000	8.820472
4308.000000	8.828800
4306.000000	8.837806
4304.000000	8.847407
4302.000000	8.856857
4300.000000	8.866545
4298.000000	8.876493
4296.000000	8.886026
4294.000000	8.895821
4292.000000	8.905483
4290.000000	8.914816
4288.000000	8.924136
4286.000000	8.932994
4284.000000	8.941225
4282.000000	8.949655
4280.000000	8.958295
4278.000000	8.966768
4276.000000	8.974763
4274.000000	8.982715
4272.000000	8.990603
4270.000000	8.997307
4268.000000	9.004377
4266.000000	9.013804
4264.000000	9.023804
4262.000000	9.033850
4260.000000	9.042922
4258.000000	9.050265
4256.000000	9.058416
4254.000000	9.068256
4252.000000	9.078012
4250.000000	9.087298
4248.000000	9.095812
4246.000000	9.104280
4244.000000	9.112987
4242.000000	9.122106
4240.000000	9.132216
4238.000000	9.142012
4236.000000	9.150646
4234.000000	9.159920
4232.000000	9.169160
4230.000000	9.177947
4228.000000	9.187101
4226.000000	9.196559
4224.000000	9.205916
4222.000000	9.215990
4220.000000	9.226360
4218.000000	9.235347
4216.000000	9.242574
4214.000000	9.251086
4212.000000	9.261710
4210.000000	9.272624
4208.000000	9.281913
4206.000000	9.290310
4204.000000	9.299699
4202.000000	9.310203
4200.000000	9.320630
4198.000000	9.330124
4196.000000	9.339589
4194.000000	9.349509
4192.000000	9.358403
4190.000000	9.366794
4188.000000	9.376061
4186.000000	9.386402
4184.000000	9.396885
4182.000000	9.406248
4180.000000	9.415402
4178.000000	9.424873
4176.000000	9.433166
4174.000000	9.440691
4172.000000	9.448987
4170.000000	9.458553
4168.000000	9.468236
4166.000000	9.477410
4164.000000	9.486115
4162.000000	9.495348
4160.000000	9.505207
4158.000000	9.514754
4156.000000	9.522626
4154.000000	9.530113
4152.000000	9.540141
4150.000000	9.551740
4148.000000	9.561416
4146.000000	9.569920
4144.000000	9.578523
4142.000000	9.587214
4140.000000	9.596935
4138.000000	9.608097
4136.000000	9.618248
4134.000000	9.626947
4132.000000	9.636053
4130.000000	9.645516
4128.000000	9.654473
4126.000000	9.664022
4124.000000	9.674084
4122.000000	9.684037
4120.000000	9.693399
4118.000000	9.702219
4116.000000	9.711110
4114.000000	9.720949
4112.000000	9.730913
4110.000000	9.740244
4108.000000	9.749405
4106.000000	9.759048
4104.000000	9.768324
4102.000000	9.777937
4100.000000	9.788435
4098.000000	9.797819
4096.000000	9.805031
4094.000000	9.813107
4092.000000	9.823234
4090.000000	9.833703
4088.000000	9.843724
4086.000000	9.853216
4084.000000	9.861686
4082.000000	9.871002
4080.000000	9.881791
4078.000000	9.891568
4076.000000	9.899583
4074.000000	9.908138
4072.000000	9.917773
4070.000000	9.927413
4068.000000	9.936694
4066.000000	9.946277
4064.000000	9.955455
4062.000000	9.964100
4060.000000	9.973656
4058.000000	9.984454
4056.000000	9.995114
4054.000000	10.004610
4052.000000	10.012719
4050.000000	10.020863
4048.000000	10.029661
4046.000000	10.039185
4044.000000	10.048974
4042.000000	10.058699
4040.000000	10.068858
4038.000000	10.079262
4036.000000	10.088512
4034.000000	10.097234
4032.000000	10.106804
4030.000000	10.116509
4028.000000	10.124638
4026.000000	10.133416
4024.000000	10.144300
4022.000000	10.155366
4020.000000	10.165607
4018.000000	10.175591
4016.000000	10.184840
4014.000000	10.195195
4012.000000	10.206702
4010.000000	10.217118
4008.000000	10.226272
4006.000000	10.235803
4004.000000	10.246326
4002.000000	10.256608
4000.000000	10.265298
3998.000000	10.273805
3996.000000	10.283187
3994.000000	10.293067
3992.000000	10.302462
3990.000000	10.311752
3988.000000	10.321373
3986.000000	10.331250
3984.000000	10.340530
3982.000000	10.348570
3980.000000	10.355793
3978.000000	10.363597
3976.000000	10.371851
3974.000000	10.380428
3972.000000	10.389436
3970.000000	10.398898
3968.000000	10.408961
3966.000000	10.418768
3964.000000	10.426783
3962.000000	10.434575
3960.000000	10.443331
3958.000000	10.452102
3956.000000	10.461045
3954.000000	10.469388
3952.000000	10.472974
3950.000000	10.474705
3948.000000	10.483602
3946.000000	10.495782
3944.000000	10.502185
3942.000000	10.511376
3940.000000	10.528514
3938.000000	10.543764
3936.000000	10.548615
3934.000000	10.544887
3932.000000	10.547193
3930.000000	10.564056
3928.000000	10.580430
3926.000000	10.586615
3924.000000	10.592235
3922.000000	10.599009
3920.000000	10.598846
3918.000000	10.601019
3916.000000	10.621862
3914.000000	10.652354
3912.000000	10.673735
3910.000000	10.682453
3908.000000	10.669729
3906.000000	10.631116
3904.000000	10.596669
3902.000000	10.595099
3900.000000	10.626367
3898.000000	10.679117
3896.000000	10.719419
3894.000000	10.715404
3892.000000	10.698738
3890.000000	10.708948
3888.000000	10.706907
3886.000000	10.692131
3884.000000	10.712361
3882.000000	10.738197
3880.000000	10.758357
3878.000000	10.787632
3876.000000	10.795037
3874.000000	10.773822
3872.000000	10.732623
3870.000000	10.714494
3868.000000	10.748148
3866.000000	10.777957
3864.000000	10.795727
3862.000000	10.832079
3860.000000	10.864944
3858.000000	10.826827
3856.000000	10.673806
3854.000000	10.554506
3852.000000	10.640246
3850.000000	10.824868
3848.000000	10.930490
3846.000000	10.943922
3844.000000	10.923868
3842.000000	10.890204
3840.000000	10.827039
3838.000000	10.790953
3836.000000	10.842876
3834.000000	10.918142
3832.000000	10.962269
3830.000000	10.994094
3828.000000	11.014955
3826.000000	11.018820
3824.000000	10.985381
3822.000000	10.937840
3820.000000	10.937033
3818.000000	10.936655
3816.000000	10.942936
3814.000000	11.024778
3812.000000	11.103395
3810.000000	11.093701
3808.000000	11.042748
3806.000000	11.034819
3804.000000	11.023689
3802.000000	10.988789
3800.000000	11.028108
3798.000000	11.105423
3796.000000	11.151506
3794.000000	11.187742
3792.000000	11.214582
3790.000000	11.226672
3788.000000	11.230254
3786.000000	11.231057
3784.000000	11.234734
3782.000000	11.232240
3780.000000	11.228158
3778.000000	11.247115
3776.000000	11.275991
3774.000000	11.283359
3772.000000	11.262150
3770.000000	11.244404
3768.000000	11.255245
3766.000000	11.280028
3764.000000	11.304062
3762.000000	11.305956
3760.000000	11.292861
3758.000000	11.298885
3756.000000	11.288498
3754.000000	11.199196
3752.000000	11.093129
3750.000000	11.089846
3748.000000	11.134926
3746.000000	11.103305
3744.000000	11.118878
3742.000000	11.262418
3740.000000	11.347692
3738.000000	11.309975
3736.000000	11.266427
3734.000000	11.280450
3732.000000	11.338642
3730.000000	11.410380
3728.000000	11.443447
3726.000000	11.445456
3724.000000	11.455414
3722.000000	11.475341
3720.000000	11.500655
3718.000000	11.523111
3716.000000	11.516563
3714.000000	11.460688
3712.000000	11.416274
3710.000000	11.441521
3708.000000	11.499742
3706.000000	11.544940
3704.000000	11.557231
3702.000000	11.558357
3700.000000	11.583412
3698.000000	11.613096
3696.000000	11.621835
3694.000000	11.601994
3692.000000	11.539423
3690.000000	11.462166
3688.000000	11.474988
3686.000000	11.583565
3684.000000	11.663238
3682.000000	11.673943
3680.000000	11.638266
3678.000000	11.547456
3676.000000	11.474480
3674.000000	11.499501
3672.000000	11.523816
3670.000000	11.540676
3668.000000	11.627865
3666.000000	11.715026
3664.000000	11.748397
3662.000000	11.754606
3660.000000	11.740515
3658.000000	11.699368
3656.000000	11.681056
3654.000000	11.687425
3652.000000	11.631996
3650.000000	11.557738
3648.000000	11.586000
3646.000000	11.690082
3644.000000	11.765570
3642.000000	11.791084
3640.000000	11.798538
3638.000000	11.800377
3636.000000	11.794635
3634.000000	11.776568
3632.000000	11.713957
3630.000000	11.627586
3628.000000	11.643079
3626.000000	11.746649
3624.000000	11.803357
3622.000000	11.780121
3620.000000	11.737196
3618.000000	11.740746
3616.000000	11.766855
3614.000000	11.766739
3612.000000	11.751741
3610.000000	11.740952
3608.000000	11.758338
3606.000000	11.801285
3604.000000	11.825897
3602.000000	11.819458
3600.000000	11.805002
3598.000000	11.799606
3596.000000	11.799924
3594.000000	11.805854
3592.000000	11.805369
3590.000000	11.775517
3588.000000	11.749639
3586.000000	11.771511
3584.000000	11.811853
3582.000000	11.830700
3580.000000	11.831226
3578.000000	11.829154
3576.000000	11.830038
3574.000000	11.831369
3572.000000	11.822956
3570.000000	11.790512
3568.000000	11.754678
3566.000000	11.759073
3564.000000	11.790544
3562.000000	11.809713
3560.000000	11.814802
3558.000000	11.817272
3556.000000	11.815387
3554.000000	11.806415
3552.000000	11.800140
3550.000000	11.797460
3548.000000	11.786918
3546.000000	11.778026
3544.000000	11.782909
3542.000000	11.792335
3540.000000	11.795085
3538.000000	11.789774
3536.000000	11.784030
3534.000000	11.780939
3532.000000	11.774217
3530.000000	11.762192
3528.000000	11.750036
3526.000000	11.741337
3524.000000	11.735253
3522.000000	11.732502
3520.000000	11.730865
3518.000000	11.726510
3516.000000	11.719423
3514.000000	11.710087
3512.000000	11.698411
3510.000000	11.686673
3508.000000	11.677777
3506.000000	11.666061
3504.000000	11.649680
3502.000000	11.638392
3500.000000	11.631943
3498.000000	11.622053
3496.000000	11.610169
3494.000000	11.600002
3492.000000	11.589016
3490.000000	11.576599
3488.000000	11.565373
3486.000000	11.555051
3484.000000	11.541824
3482.000000	11.529389
3480.000000	11.523041
3478.000000	11.518805
3476.000000	11.512264
3474.000000	11.505823
3472.000000	11.502253
3470.000000	11.498074
3468.000000	11.492232
3466.000000	11.488757
3464.000000	11.487134
3462.000000	11.485544
3460.000000	11.485236
3458.000000	11.485515
3456.000000	11.482954
3454.000000	11.477855
3452.000000	11.472582
3450.000000	11.465399
3448.000000	11.457667
3446.000000	11.453945
3444.000000	11.452657
3442.000000	11.452304
3440.000000	11.455045
3438.000000	11.460748
3436.000000	11.467529
3434.000000	11.475521
3432.000000	11.486207
3430.000000	11.498923
3428.000000	11.511331
3426.000000	11.522635
3424.000000	11.532395
3422.000000	11.540346
3420.000000	11.549053
3418.000000	11.558808
3416.000000	11.566079
3414.000000	11.571140
3412.000000	11.575309
3410.000000	11.578335
3408.000000	11.581020
3406.000000	11.583955
3404.000000	11.586610
3402.000000	11.587904
3400.000000	11.589287
3398.000000	11.593741
3396.000000	11.601056
3394.000000	11.607435
3392.000000	11.613108
3390.000000	11.620218
3388.000000	11.627326
3386.000000	11.633931
3384.000000	11.639685
3382.000000	11.643718
3380.000000	11.647613
3378.000000	11.652611
3376.000000	11.657273
3374.000000	11.660867
3372.000000	11.663105
3370.000000	11.664343
3368.000000	11.667258
3366.000000	11.671998
3364.000000	11.677211
3362.000000	11.681912
3360.000000	11.685919
3358.000000	11.689829
3356.000000	11.693160
3354.000000	11.696427
3352.000000	11.699477
3350.000000	11.702918
3348.000000	11.708197
3346.000000	11.713634
3344.000000	11.718015
3342.000000	11.721307
3340.000000	11.725032
3338.000000	11.728857
3336.000000	11.732717
3334.000000	11.737396
3332.000000	11.743242
3330.000000	11.749003
3328.000000	11.752392
3326.000000	11.754873
3324.000000	11.758061
3322.000000	11.760970
3320.000000	11.764277
3318.000000	11.768430
3316.000000	11.771944
3314.000000	11.774595
3312.000000	11.776374
3310.000000	11.776751
3308.000000	11.777668
3306.000000	11.779524
3304.000000	11.782409
3302.000000	11.787121
3300.000000	11.791932
3298.000000	11.796178
3296.000000	11.799588
3294.000000	11.801238
3292.000000	11.802218
3290.000000	11.805540
3288.000000	11.811548
3286.000000	11.816488
3284.000000	11.819682
3282.000000	11.823076
3280.000000	11.826214
3278.000000	11.829100
3276.000000	11.833101
3274.000000	11.837035
3272.000000	11.840593
3270.000000	11.845320
3268.000000	11.850636
3266.000000	11.855817
3264.000000	11.860699
3262.000000	11.865256
3260.000000	11.870183
3258.000000	11.874534
3256.000000	11.878691
3254.000000	11.884185
3252.000000	11.890517
3250.000000	11.896065
3248.000000	11.900418
3246.000000	11.904592
3244.000000	11.910588
3242.000000	11.917867
3240.000000	11.923712
3238.000000	11.929224
3236.000000	11.934483
3234.000000	11.937378
3232.000000	11.940462
3230.000000	11.947115
3228.000000	11.954904
3226.000000	11.960535
3224.000000	11.965616
3222.000000	11.970934
3220.000000	11.975945
3218.000000	11.981596
3216.000000	11.987788
3214.000000	11.993923
3212.000000	11.999853
3210.000000	12.005981
3208.000000	12.013950
3206.000000	12.024357
3204.000000	12.034571
3202.000000	12.043564
3200.000000	12.052329
3198.000000	12.061761
3196.000000	12.073089
3194.000000	12.084203
3192.000000	12.093348
3190.000000	12.101886
3188.000000	12.111476
3186.000000	12.121787
3184.000000	12.133209
3182.000000	12.144025
3180.000000	12.153244
3178.000000	12.162566
3176.000000	12.173119
3174.000000	12.184038
3172.000000	12.194298
3170.000000	12.203772
3168.000000	12.213881
3166.000000	12.223843
3164.000000	12.233928
3162.000000	12.245387
3160.000000	12.256814
3158.000000	12.267569
3156.000000	12.277691
3154.000000	12.286284
3152.000000	12.294691
3150.000000	12.306419
3148.000000	12.319212
3146.000000	12.330441
3144.000000	12.340582
3142.000000	12.350331
3140.000000	12.359517
3138.000000	12.368357
3136.000000	12.378143
3134.000000	12.386453
3132.000000	12.393786
3130.000000	12.402960
3128.000000	12.413352
3126.000000	12.422171
3124.000000	12.428960
3122.000000	12.435665
3120.000000	12.442612
3118.000000	12.448136
3116.000000	12.454909
3114.000000	12.464338
3112.000000	12.473096
3110.000000	12.480125
3108.000000	12.487620
3106.000000	12.495850
3104.000000	12.504528
3102.000000	12.514259
3100.000000	12.524570
3098.000000	12.534637
3096.000000	12.545310
3094.000000	12.556588
3092.000000	12.566480
3090.000000	12.574669
3088.000000	12.583831
3086.000000	12.593437
3084.000000	12.601872
3082.000000	12.609350
3080.000000	12.616002
3078.000000	12.623166
3076.000000	12.630607
3074.000000	12.637189
3072.000000	12.643946
3070.000000	12.648235
3068.000000	12.650423
3066.000000	12.654546
3064.000000	12.661630
3062.000000	12.669881
3060.000000	12.678807
3058.000000	12.688741
3056.000000	12.700090
3054.000000	12.711850
3052.000000	12.723239
3050.000000	12.733297
3048.000000	12.741313
3046.000000	12.749155
3044.000000	12.756895
3042.000000	12.762707
3040.000000	12.767181
3038.000000	12.771586
3036.000000	12.775168
3034.000000	12.776071
3032.000000	12.776705
3030.000000	12.775522
3028.000000	12.767661
3026.000000	12.754090
3024.000000	12.737547
3022.000000	12.721693
3020.000000	12.713799
3018.000000	12.718843
3016.000000	12.738629
3014.000000	12.771463
3012.000000	12.811871
3010.000000	12.852185
3008.000000	12.886950
3006.000000	12.913974
3004.000000	12.932259
3002.000000	12.943677
3000.000000	12.953565
2998.000000	12.961440
2996.000000	12.965551
2994.000000	12.967856
2992.000000	12.971426
2990.000000	12.973861
2988.000000	12.973298
2986.000000	12.970076
2984.000000	12.962781
2982.000000	12.950563
2980.000000	12.933631
2978.000000	12.910011
2976.000000	12.877433
2974.000000	12.834080
2972.000000	12.776665
2970.000000	12.704196
2968.000000	12.624835
2966.000000	12.552143
2964.000000	12.500321
2962.000000	12.476373
2960.000000	12.481688
2958.000000	12.508241
2956.000000	12.542548
2954.000000	12.576108
2952.000000	12.603546
2950.000000	12.618374
2948.000000	12.618105
2946.000000	12.599377
2944.000000	12.560050
2942.000000	12.503286
2940.000000	12.435568
2938.000000	12.365600
2936.000000	12.300914
2934.000000	12.243109
2932.000000	12.187380
2930.000000	12.132807
2928.000000	12.088003
2926.000000	12.065142
2924.000000	12.078841
2922.000000	12.136962
2920.000000	12.231434
2918.000000	12.345412
2916.000000	12.465126
2914.000000	12.578262
2912.000000	12.676483
2910.000000	12.754863
2908.000000	12.815653
2906.000000	12.866465
2904.000000	12.911151
2902.000000	12.950674
2900.000000	12.987724
2898.000000	13.023097
2896.000000	13.056513
2894.000000	13.087783
2892.000000	13.116899
2890.000000	13.143655
2888.000000	13.167820
2886.000000	13.187280
2884.000000	13.201466
2882.000000	13.208519
2880.000000	13.208906
2878.000000	13.203488
2876.000000	13.189329
2874.000000	13.164539
2872.000000	13.131140
2870.000000	13.084478
2868.000000	13.019144
2866.000000	12.939249
2864.000000	12.863298
2862.000000	12.814270
2860.000000	12.803404
2858.000000	12.825336
2856.000000	12.867929
2854.000000	12.919343
2852.000000	12.977240
2850.000000	13.047079
2848.000000	13.130365
2846.000000	13.217824
2844.000000	13.296307
2842.000000	13.358251
2840.000000	13.405797
2838.000000	13.443333
2836.000000	13.474495
2834.000000	13.501378
2832.000000	13.525238
2830.000000	13.545196
2828.000000	13.562204
2826.000000	13.577592
2824.000000	13.592008
2822.000000	13.605733
2820.000000	13.618271
2818.000000	13.629290
2816.000000	13.639785
2814.000000	13.648830
2812.000000	13.657718
2810.000000	13.666858
2808.000000	13.674696
2806.000000	13.681975
2804.000000	13.690013
2802.000000	13.696951
2800.000000	13.703610
2798.000000	13.709568
2796.000000	13.715544
2794.000000	13.721017
2792.000000	13.728108
2790.000000	13.737294
2788.000000	13.747011
2786.000000	13.757896
2784.000000	13.770216
2782.000000	13.782203
2780.000000	13.792447
2778.000000	13.801415
2776.000000	13.809442
2774.000000	13.816785
2772.000000	13.825666
2770.000000	13.834798
2768.000000	13.842244
2766.000000	13.848781
2764.000000	13.857054
2762.000000	13.864861
2760.000000	13.871250
2758.000000	13.877551
2756.000000	13.883810
2754.000000	13.889168
2752.000000	13.893372
2750.000000	13.897915
2748.000000	13.903437
2746.000000	13.908074
2744.000000	13.912313
2742.000000	13.916125
2740.000000	13.920303
2738.000000	13.924709
2736.000000	13.928870
2734.000000	13.932709
2732.000000	13.937194
2730.000000	13.942170
2728.000000	13.946776
2726.000000	13.950613
2724.000000	13.953201
2722.000000	13.955765
2720.000000	13.959491
2718.000000	13.962385
2716.000000	13.965013
2714.000000	13.968609
2712.000000	13.971986
2710.000000	13.973520
2708.000000	13.974884
2706.000000	13.977399
2704.000000	13.980527
2702.000000	13.983497
2700.000000	13.988421
2698.000000	13.993601
2696.000000	13.997801
2694.000000	14.002286
2692.000000	14.006812
2690.000000	14.011380
2688.000000	14.016092
2686.000000	14.020215
2684.000000	14.024184
2682.000000	14.028023
2680.000000	14.032244
2678.000000	14.035449
2676.000000	14.037945
2674.000000	14.041533
2672.000000	14.045472
2670.000000	14.047628
2668.000000	14.049481
2666.000000	14.052263
2664.000000	14.055294
2662.000000	14.056896
2660.000000	14.059231
2658.000000	14.062619
2656.000000	14.066638
2654.000000	14.070360
2652.000000	14.074748
2650.000000	14.078203
2648.000000	14.081114
2646.000000	14.084878
2644.000000	14.088964
2642.000000	14.093825
2640.000000	14.098038
2638.000000	14.099921
2636.000000	14.102610
2634.000000	14.106686
2632.000000	14.110539
2630.000000	14.113549
2628.000000	14.115985
2626.000000	14.118641
2624.000000	14.121222
2622.000000	14.123218
2620.000000	14.126238
2618.000000	14.129709
2616.000000	14.133097
2614.000000	14.135315
2612.000000	14.136672
2610.000000	14.137675
2608.000000	14.139594
2606.000000	14.141463
2604.000000	14.142826
2602.000000	14.144268
2600.000000	14.145268
2598.000000	14.145085
2596.000000	14.145550
2594.000000	14.146404
2592.000000	14.148430
2590.000000	14.151833
2588.000000	14.156635
2586.000000	14.162227
2584.000000	14.169454
2582.000000	14.178221
2580.000000	14.186784
2578.000000	14.193449
2576.000000	14.199594
2574.000000	14.206205
2572.000000	14.212195
2570.000000	14.216393
2568.000000	14.220650
2566.000000	14.225154
2564.000000	14.228627
2562.000000	14.231067
2560.000000	14.234622
2558.000000	14.238505
2556.000000	14.241137
2554.000000	14.243951
2552.000000	14.248583
2550.000000	14.251799
2548.000000	14.254113
2546.000000	14.257117
2544.000000	14.260835
2542.000000	14.263977
2540.000000	14.266848
2538.000000	14.269359
2536.000000	14.272037
2534.000000	14.275701
2532.000000	14.280149
2530.000000	14.283611
2528.000000	14.287802
2526.000000	14.291663
2524.000000	14.293823
2522.000000	14.295344
2520.000000	14.298044
2518.000000	14.301793
2516.000000	14.305994
2514.000000	14.308306
2512.000000	14.309624
2510.000000	14.312053
2508.000000	14.315590
2506.000000	14.318030
2504.000000	14.319855
2502.000000	14.323246
2500.000000	14.326911
2498.000000	14.329008
2496.000000	14.332824
2494.000000	14.336736
2492.000000	14.340535
2490.000000	14.344025
2488.000000	14.347128
2486.000000	14.350870
2484.000000	14.354540
2482.000000	14.356963
2480.000000	14.360814
2478.000000	14.365098
2476.000000	14.368490
2474.000000	14.370371
2472.000000	14.372350
2470.000000	14.375384
2468.000000	14.378607
2466.000000	14.380575
2464.000000	14.381917
2462.000000	14.382754
2460.000000	14.384624
2458.000000	14.386158
2456.000000	14.386663
2454.000000	14.388522
2452.000000	14.392728
2450.000000	14.395315
2448.000000	14.397445
2446.000000	14.399498
2444.000000	14.400973
2442.000000	14.403437
2440.000000	14.407136
2438.000000	14.409615
2436.000000	14.411490
2434.000000	14.413903
2432.000000	14.417553
2430.000000	14.420091
2428.000000	14.422468
2426.000000	14.424839
2424.000000	14.428270
2422.000000	14.430835
2420.000000	14.433613
2418.000000	14.437321
2416.000000	14.440895
2414.000000	14.443006
2412.000000	14.445929
2410.000000	14.449640
2408.000000	14.453005
2406.000000	14.457706
2404.000000	14.463684
2402.000000	14.468955
2400.000000	14.473412
2398.000000	14.477588
2396.000000	14.482827
2394.000000	14.488223
2392.000000	14.493565
2390.000000	14.499535
2388.000000	14.505318
2386.000000	14.507733
2384.000000	14.501102
2382.000000	14.470194
2380.000000	14.411821
2378.000000	14.348140
2376.000000	14.295773
2374.000000	14.248688
2372.000000	14.199629
2370.000000	14.150660
2368.000000	14.108743
2366.000000	14.072651
2364.000000	14.043814
2362.000000	14.027176
2360.000000	14.025559
2358.000000	14.039932
2356.000000	14.071735
2354.000000	14.116887
2352.000000	14.169286
2350.000000	14.205081
2348.000000	14.193120
2346.000000	14.142101
2344.000000	14.085052
2342.000000	14.039070
2340.000000	14.014408
2338.000000	14.017432
2336.000000	14.039417
2334.000000	14.063528
2332.000000	14.087119
2330.000000	14.111991
2328.000000	14.138290
2326.000000	14.165678
2324.000000	14.192026
2322.000000	14.217152
2320.000000	14.242524
2318.000000	14.265003
2316.000000	14.284682
2314.000000	14.301865
2312.000000	14.318040
2310.000000	14.330242
2308.000000	14.339830
2306.000000	14.349234
2304.000000	14.357601
2302.000000	14.362783
2300.000000	14.368008
2298.000000	14.372623
2296.000000	14.376629
2294.000000	14.380476
2292.000000	14.385733
2290.000000	14.390025
2288.000000	14.393099
2286.000000	14.393616
2284.000000	14.386743
2282.000000	14.376638
2280.000000	14.377912
2278.000000	14.383829
2276.000000	14.387230
2274.000000	14.388686
2272.000000	14.389410
2270.000000	14.388701
2268.000000	14.388337
2266.000000	14.388904
2264.000000	14.390203
2262.000000	14.391040
2260.000000	14.391101
2258.000000	14.391473
2256.000000	14.392826
2254.000000	14.392971
2252.000000	14.394318
2250.000000	14.396176
2248.000000	14.397804
2246.000000	14.399719
2244.000000	14.402425
2242.000000	14.405102
2240.000000	14.408570
2238.000000	14.411695
2236.000000	14.415409
2234.000000	14.417051
2232.000000	14.418844
2230.000000	14.421767
2228.000000	14.424392
2226.000000	14.426685
2224.000000	14.430220
2222.000000	14.432253
2220.000000	14.434942
2218.000000	14.437115
2216.000000	14.437758
2214.000000	14.438528
2212.000000	14.439965
2210.000000	14.441568
2208.000000	14.443846
2206.000000	14.444567
2204.000000	14.446154
2202.000000	14.448608
2200.000000	14.450928
2198.000000	14.452035
2196.000000	14.454394
2194.000000	14.455698
2192.000000	14.456638
2190.000000	14.457591
2188.000000	14.458296
2186.000000	14.458690
2184.000000	14.459616
2182.000000	14.459926
2180.000000	14.459991
2178.000000	14.460127
2176.000000	14.460801
2174.000000	14.460880
2172.000000	14.459010
2170.000000	14.455737
2168.000000	14.457980
2166.000000	14.462603
2164.000000	14.466029
2162.000000	14.466743
2160.000000	14.467725
2158.000000	14.469064
2156.000000	14.469875
2154.000000	14.470238
2152.000000	14.471203
2150.000000	14.472184
2148.000000	14.472848
2146.000000	14.473080
2144.000000	14.475283
2142.000000	14.475874
2140.000000	14.476111
2138.000000	14.476549
2136.000000	14.476698
2134.000000	14.477710
2132.000000	14.480469
2130.000000	14.481761
2128.000000	14.482589
2126.000000	14.483320
2124.000000	14.483611
2122.000000	14.483908
2120.000000	14.485451
2118.000000	14.486422
2116.000000	14.488332
2114.000000	14.490465
2112.000000	14.493069
2110.000000	14.494961
2108.000000	14.497490
2106.000000	14.500525
2104.000000	14.504896
2102.000000	14.508638
2100.000000	14.511778
2098.000000	14.512534
2096.000000	14.514189
2094.000000	14.517257
2092.000000	14.520802
2090.000000	14.522176
2088.000000	14.524718
2086.000000	14.528850
2084.000000	14.533372
2082.000000	14.535694
2080.000000	14.539151
2078.000000	14.543520
2076.000000	14.546704
2074.000000	14.548522
2072.000000	14.551574
2070.000000	14.554856
2068.000000	14.558721
2066.000000	14.560829
2064.000000	14.565329
2062.000000	14.570986
2060.000000	14.576550
2058.000000	14.580807
2056.000000	14.584488
2054.000000	14.588091
2052.000000	14.592463
2050.000000	14.595810
2048.000000	14.599857
2046.000000	14.603968
2044.000000	14.607083
2042.000000	14.608739
2040.000000	14.613794
2038.000000	14.619220
2036.000000	14.623388
2034.000000	14.625944
2032.000000	14.626584
2030.000000	14.624991
2028.000000	14.629151
2026.000000	14.636335
2024.000000	14.640752
2022.000000	14.643055
2020.000000	14.643302
2018.000000	14.641457
2016.000000	14.646385
2014.000000	14.654763
2012.000000	14.660177
2010.000000	14.663848
2008.000000	14.668644
2006.000000	14.672618
2004.000000	14.675414
2002.000000	14.676847
2000.000000	14.678605
1998.000000	14.680357
1996.000000	14.681294
1994.000000	14.673832
1992.000000	14.667300
1990.000000	14.674305
1988.000000	14.681712
1986.000000	14.685505
1984.000000	14.687126
1982.000000	14.686348
1980.000000	14.686281
1978.000000	14.685176
1976.000000	14.684411
1974.000000	14.683315
1972.000000	14.682031
1970.000000	14.676064
1968.000000	14.666126
1966.000000	14.664871
1964.000000	14.669120
1962.000000	14.662701
1960.000000	14.645733
1958.000000	14.640736
1956.000000	14.651863
1954.000000	14.656359
1952.000000	14.655709
1950.000000	14.651892
1948.000000	14.648414
1946.000000	14.641347
1944.000000	14.624266
1942.000000	14.615054
1940.000000	14.628818
1938.000000	14.634998
1936.000000	14.632413
1934.000000	14.627720
1932.000000	14.624656
1930.000000	14.621151
1928.000000	14.618014
1926.000000	14.608366
1924.000000	14.590078
1922.000000	14.580559
1920.000000	14.565782
1918.000000	14.543797
1916.000000	14.562473
1914.000000	14.576591
1912.000000	14.567453
1910.000000	14.552408
1908.000000	14.548645
1906.000000	14.547808
1904.000000	14.544068
1902.000000	14.536996
1900.000000	14.529836
1898.000000	14.519395
1896.000000	14.508480
1894.000000	14.503885
1892.000000	14.496348
1890.000000	14.475954
1888.000000	14.483251
1886.000000	14.497270
1884.000000	14.499906
1882.000000	14.499757
1880.000000	14.498509
1878.000000	14.493714
1876.000000	14.490297
1874.000000	14.485946
1872.000000	14.463896
1870.000000	14.412401
1868.000000	14.406221
1866.000000	14.446452
1864.000000	14.469051
1862.000000	14.468543
1860.000000	14.464070
1858.000000	14.460218
1856.000000	14.458964
1854.000000	14.454744
1852.000000	14.450473
1850.000000	14.439147
1848.000000	14.414166
1846.000000	14.341105
1844.000000	14.293882
1842.000000	14.359462
1840.000000	14.406925
1838.000000	14.400743
1836.000000	14.394614
1834.000000	14.385240
1832.000000	14.341264
1830.000000	14.292926
1828.000000	14.302607
1826.000000	14.298358
1824.000000	14.301908
1822.000000	14.324862
1820.000000	14.323782
1818.000000	14.310009
1816.000000	14.302151
1814.000000	14.287717
1812.000000	14.258794
1810.000000	14.241893
1808.000000	14.243702
1806.000000	14.235817
1804.000000	14.208255
1802.000000	14.163459
1800.000000	14.142051
1798.000000	14.147528
1796.000000	14.129845
1794.000000	14.041403
1792.000000	13.989720
1790.000000	14.049206
1788.000000	14.086151
1786.000000	14.053167
1784.000000	14.029540
1782.000000	14.017826
1780.000000	14.004689
1778.000000	13.999300
1776.000000	13.952220
1774.000000	13.822450
1772.000000	13.753537
1770.000000	13.816979
1768.000000	13.854633
1766.000000	13.891663
1764.000000	13.870806
1762.000000	13.809671
1760.000000	13.817625
1758.000000	13.809049
1756.000000	13.788435
1754.000000	13.759101
1752.000000	13.646707
1750.000000	13.607454
1748.000000	13.646921
1746.000000	13.663408
1744.000000	13.642849
1742.000000	13.588911
1740.000000	13.533862
1738.000000	13.532493
1736.000000	13.396777
1734.000000	13.244277
1732.000000	13.379340
1730.000000	13.515503
1728.000000	13.549472
1726.000000	13.550907
1724.000000	13.535240
1722.000000	13.507231
1720.000000	13.372377
1718.000000	13.177415
1716.000000	13.208221
1714.000000	13.354163
1712.000000	13.428550
1710.000000	13.422249
1708.000000	13.370972
1706.000000	13.305673
1704.000000	13.271858
1702.000000	13.096411
1700.000000	12.955288
1698.000000	13.008328
1696.000000	12.994335
1694.000000	13.157002
1692.000000	13.309690
1690.000000	13.298887
1688.000000	13.226834
1686.000000	12.987483
1684.000000	12.886319
1682.000000	13.103888
1680.000000	13.235106
1678.000000	13.210219
1676.000000	13.104713
1674.000000	13.101108
1672.000000	13.115237
1670.000000	13.050102
1668.000000	13.088065
1666.000000	13.151035
1664.000000	13.101478
1662.000000	13.073860
1660.000000	13.116784
1658.000000	13.104399
1656.000000	12.909564
1654.000000	12.532831
1652.000000	12.549701
1650.000000	12.853099
1648.000000	12.839300
1646.000000	12.780499
1644.000000	12.895075
1642.000000	12.966011
1640.000000	12.930690
1638.000000	12.797200
1636.000000	12.634433
1634.000000	12.706251
1632.000000	12.834388
1630.000000	12.815450
1628.000000	12.753638
1626.000000	12.695601
1624.000000	12.605108
1622.000000	12.565833
1620.000000	12.524084
1618.000000	12.340013
1616.000000	12.255332
1614.000000	12.331349
1612.000000	12.298176
1610.000000	12.206423
1608.000000	12.159225
1606.000000	12.165338
1604.000000	12.192361
1602.000000	12.227064
1600.000000	12.262449
1598.000000	12.290698
1596.000000	12.308581
1594.000000	12.325558
1592.000000	12.337384
1590.000000	12.337911
1588.000000	12.333024
1586.000000	12.323614
1584.000000	12.311895
1582.000000	12.303016
1580.000000	12.277852
1578.000000	12.134964
1576.000000	12.025503
1574.000000	12.158629
1572.000000	12.208342
1570.000000	12.130537
1568.000000	12.143833
1566.000000	12.165348
1564.000000	12.121723
1562.000000	11.931207
1560.000000	11.600759
1558.000000	11.596021
1556.000000	11.834511
1554.000000	11.963359
1552.000000	12.059480
1550.000000	12.111833
1548.000000	12.137666
1546.000000	12.103935
1544.000000	12.022994
1542.000000	11.887343
1540.000000	11.805008
1538.000000	12.010556
1536.000000	12.223795
1534.000000	12.221506
1532.000000	12.269937
1530.000000	12.326418
1528.000000	12.293990
1526.000000	12.241985
1524.000000	12.180072
1522.000000	12.058790
1520.000000	12.079803
1518.000000	12.153170
1516.000000	12.161477
1514.000000	12.171052
1512.000000	12.141810
1510.000000	12.051399
1508.000000	11.814375
1506.000000	11.697761
1504.000000	11.821010
1502.000000	11.766721
1500.000000	11.416216
1498.000000	10.931682
1496.000000	10.575766
1494.000000	10.548962
1492.000000	10.699579
1490.000000	10.923108
1488.000000	11.202823
1486.000000	11.447055
1484.000000	11.608095
1482.000000	11.680216
1480.000000	11.713323
1478.000000	11.693895
1476.000000	11.623264
1474.000000	11.516550
1472.000000	11.488973
1470.000000	11.570332
1468.000000	11.572286
1466.000000	11.472139
1464.000000	11.416272
1462.000000	11.399284
1460.000000	11.244286
1458.000000	10.948591
1456.000000	10.808610
1454.000000	10.836456
1452.000000	10.799347
1450.000000	10.804465
1448.000000	10.911890
1446.000000	11.058298
1444.000000	11.136381
1442.000000	11.154855
1440.000000	11.132186
1438.000000	11.041870
1436.000000	11.027106
1434.000000	11.130877
1432.000000	11.156783
1430.000000	11.144499
1428.000000	11.154457
1426.000000	11.159279
1424.000000	11.140343
1422.000000	11.096188
1420.000000	10.987856
1418.000000	10.986216
1416.000000	11.050634
1414.000000	11.050393
1412.000000	11.003721
1410.000000	10.933452
1408.000000	10.829710
1406.000000	10.710066
1404.000000	10.643437
1402.000000	10.648433
1400.000000	10.667446
1398.000000	10.722806
1396.000000	10.772293
1394.000000	10.820796
1392.000000	10.888518
1390.000000	10.892215
1388.000000	10.834045
1386.000000	10.803275
1384.000000	10.806560
1382.000000	10.825105
1380.000000	10.839952
1378.000000	10.831779
1376.000000	10.802945
1374.000000	10.779921
1372.000000	10.784918
1370.000000	10.778277
1368.000000	10.758018
1366.000000	10.736185
1364.000000	10.695702
1362.000000	10.666662
1360.000000	10.663023
1358.000000	10.652442
1356.000000	10.627526
1354.000000	10.601485
1352.000000	10.574465
1350.000000	10.544116
1348.000000	10.513999
1346.000000	10.482852
1344.000000	10.449539
1342.000000	10.408737
1340.000000	10.366446
1338.000000	10.347593
1336.000000	10.342484
1334.000000	10.333390
1332.000000	10.314703
1330.000000	10.289096
1328.000000	10.258639
1326.000000	10.224902
1324.000000	10.187879
1322.000000	10.147460
1320.000000	10.102744
1318.000000	10.059849
1316.000000	10.019872
1314.000000	9.977332
1312.000000	9.935520
1310.000000	9.893412
1308.000000	9.847339
1306.000000	9.801748
1304.000000	9.755277
1302.000000	9.708160
1300.000000	9.659608
1298.000000	9.610697
1296.000000	9.561171
1294.000000	9.511608
1292.000000	9.458362
1290.000000	9.402366
1288.000000	9.345585
1286.000000	9.289371
1284.000000	9.231796
1282.000000	9.170910
1280.000000	9.105375
1278.000000	9.036082
1276.000000	8.959205
1274.000000	8.870582
1272.000000	8.763364
1270.000000	8.630537
1268.000000	8.461761
1266.000000	8.259466
1264.000000	8.047827
1262.000000	7.876749
1260.000000	7.792061
1258.000000	7.797834
1256.000000	7.853058
1254.000000	7.905845
1252.000000	7.920883
1250.000000	7.895368
1248.000000	7.843903
1246.000000	7.779993
1244.000000	7.710256
1242.000000	7.639479
1240.000000	7.568051
1238.000000	7.498714
1236.000000	7.431320
1234.000000	7.365939
1232.000000	7.302405
1230.000000	7.240409
1228.000000	7.177979
1226.000000	7.115165
1224.000000	7.051464
1222.000000	6.984519
1220.000000	6.914329
1218.000000	6.843427
1216.000000	6.771063
1214.000000	6.698044
1212.000000	6.629042
1210.000000	6.565511
1208.000000	6.506674
1206.000000	6.451569
1204.000000	6.394244
1202.000000	6.336607
1200.000000	6.280748
1198.000000	6.225650
1196.000000	6.169491
1194.000000	6.110313
1192.000000	6.049400
1190.000000	5.988713
1188.000000	5.925713
1186.000000	5.857524
1184.000000	5.774724
1182.000000	5.671964
1180.000000	5.589926
1178.000000	5.551993
1176.000000	5.517364
1174.000000	5.466049
1172.000000	5.405585
1170.000000	5.341884
1168.000000	5.275823
1166.000000	5.208174
1164.000000	5.140931
1162.000000	5.075648
1160.000000	5.012071
1158.000000	4.951184
1156.000000	4.890232
1154.000000	4.830444
1152.000000	4.770980
1150.000000	4.712463
1148.000000	4.654298
1146.000000	4.593265
1144.000000	4.532361
1142.000000	4.479401
1140.000000	4.435925
1138.000000	4.393214
1136.000000	4.344175
1134.000000	4.289440
1132.000000	4.230451
1130.000000	4.170598
1128.000000	4.112944
1126.000000	4.054841
1124.000000	3.994367
1122.000000	3.932712
1120.000000	3.869789
1118.000000	3.804798
1116.000000	3.738942
1114.000000	3.673895
1112.000000	3.608762
1110.000000	3.543705
1108.000000	3.478268
1106.000000	3.416021
1104.000000	3.357769
1102.000000	3.300379
1100.000000	3.242267
1098.000000	3.185092
1096.000000	3.130440
1094.000000	3.076987
1092.000000	3.026684
1090.000000	2.979911
1088.000000	2.934680
1086.000000	2.889646
1084.000000	2.842138
1082.000000	2.795089
1080.000000	2.750554
1078.000000	2.710357
1076.000000	2.673563
1074.000000	2.641742
1072.000000	2.613312
1070.000000	2.584782
1068.000000	2.554547
1066.000000	2.525253
1064.000000	2.496363
1062.000000	2.466905
1060.000000	2.434785
1058.000000	2.396247
1056.000000	2.344985
1054.000000	2.277521
1052.000000	2.208752
1050.000000	2.167272
1048.000000	2.163223
1046.000000	2.176461
1044.000000	2.178187
1042.000000	2.163353
1040.000000	2.139464
1038.000000	2.111111
1036.000000	2.081309
1034.000000	2.050096
1032.000000	2.016298
1030.000000	1.981840
1028.000000	1.946454
1026.000000	1.909900
1024.000000	1.872717
1022.000000	1.836858
1020.000000	1.803066
1018.000000	1.770844
1016.000000	1.741351
1014.000000	1.717642
1012.000000	1.697160
1010.000000	1.677867
1008.000000	1.658137
1006.000000	1.635801
1004.000000	1.610509
1002.000000	1.582912
1000.000000	1.551281
