PE IR       SUBTECH     SPECTRUM    ASCII       PEDS        4.00        
   -1
TE109A_077_150K_BG.ASC
20/04/21
20:57:03.00
20/04/21
20:57:03.00
Administrator
TE109A, Tuesday, April 21 2020, 077.
1000.000000
#HDR
-1
-1
#GR
cm-1
EGY
1.0
0.0
6000.000000
-2.000000
2501
8
105.325012
10.932539
#DATA
6000.000000	16.416136
5998.000000	16.447261
5996.000000	16.476659
5994.000000	16.508681
5992.000000	16.542513
5990.000000	16.576085
5988.000000	16.609201
5986.000000	16.640665
5984.000000	16.673849
5982.000000	16.709361
5980.000000	16.743090
5978.000000	16.775160
5976.000000	16.807530
5974.000000	16.841436
5972.000000	16.876516
5970.000000	16.911795
5968.000000	16.945791
5966.000000	16.979525
5964.000000	17.013076
5962.000000	17.046824
5960.000000	17.080037
5958.000000	17.113818
5956.000000	17.148014
5954.000000	17.183918
5952.000000	17.219718
5950.000000	17.252311
5948.000000	17.284603
5946.000000	17.318462
5944.000000	17.352101
5942.000000	17.385533
5940.000000	17.418009
5938.000000	17.451297
5936.000000	17.485529
5934.000000	17.518955
5932.000000	17.552320
5930.000000	17.586474
5928.000000	17.620183
5926.000000	17.655040
5924.000000	17.690592
5922.000000	17.726767
5920.000000	17.763500
5918.000000	17.799210
5916.000000	17.834355
5914.000000	17.869292
5912.000000	17.905688
5910.000000	17.943761
5908.000000	17.981549
5906.000000	18.018380
5904.000000	18.053681
5902.000000	18.088273
5900.000000	18.123571
5898.000000	18.160084
5896.000000	18.198012
5894.000000	18.236247
5892.000000	18.272605
5890.000000	18.308025
5888.000000	18.343653
5886.000000	18.379916
5884.000000	18.415351
5882.000000	18.450473
5880.000000	18.485958
5878.000000	18.521847
5876.000000	18.557688
5874.000000	18.593814
5872.000000	18.630595
5870.000000	18.667928
5868.000000	18.705609
5866.000000	18.743260
5864.000000	18.781259
5862.000000	18.818523
5860.000000	18.855710
5858.000000	18.892892
5856.000000	18.930113
5854.000000	18.968725
5852.000000	19.008156
5850.000000	19.047306
5848.000000	19.086103
5846.000000	19.124385
5844.000000	19.162594
5842.000000	19.202231
5840.000000	19.242847
5838.000000	19.284347
5836.000000	19.325755
5834.000000	19.367551
5832.000000	19.410415
5830.000000	19.453725
5828.000000	19.494464
5826.000000	19.533766
5824.000000	19.573363
5822.000000	19.614816
5820.000000	19.656873
5818.000000	19.697749
5816.000000	19.737367
5814.000000	19.778060
5812.000000	19.819071
5810.000000	19.859971
5808.000000	19.901296
5806.000000	19.942790
5804.000000	19.983662
5802.000000	20.025131
5800.000000	20.065355
5798.000000	20.106325
5796.000000	20.146411
5794.000000	20.188028
5792.000000	20.229803
5790.000000	20.269279
5788.000000	20.307938
5786.000000	20.348561
5784.000000	20.391645
5782.000000	20.434911
5780.000000	20.476601
5778.000000	20.518153
5776.000000	20.559252
5774.000000	20.600707
5772.000000	20.642279
5770.000000	20.684851
5768.000000	20.727766
5766.000000	20.770697
5764.000000	20.813170
5762.000000	20.856022
5760.000000	20.897877
5758.000000	20.939213
5756.000000	20.979928
5754.000000	21.021698
5752.000000	21.063641
5750.000000	21.103567
5748.000000	21.143615
5746.000000	21.185018
5744.000000	21.227075
5742.000000	21.268990
5740.000000	21.309501
5738.000000	21.349595
5736.000000	21.389039
5734.000000	21.429076
5732.000000	21.469986
5730.000000	21.510490
5728.000000	21.550241
5726.000000	21.589888
5724.000000	21.631315
5722.000000	21.673100
5720.000000	21.715357
5718.000000	21.757813
5716.000000	21.800694
5714.000000	21.845275
5712.000000	21.889006
5710.000000	21.933064
5708.000000	21.977021
5706.000000	22.021259
5704.000000	22.066833
5702.000000	22.111829
5700.000000	22.155750
5698.000000	22.198412
5696.000000	22.241640
5694.000000	22.287338
5692.000000	22.333220
5690.000000	22.378724
5688.000000	22.423741
5686.000000	22.469563
5684.000000	22.514831
5682.000000	22.559276
5680.000000	22.603728
5678.000000	22.648731
5676.000000	22.694509
5674.000000	22.741041
5672.000000	22.786683
5670.000000	22.832519
5668.000000	22.877702
5666.000000	22.922178
5664.000000	22.966032
5662.000000	23.010561
5660.000000	23.057457
5658.000000	23.105383
5656.000000	23.152330
5654.000000	23.198185
5652.000000	23.242942
5650.000000	23.288498
5648.000000	23.333573
5646.000000	23.378901
5644.000000	23.423718
5642.000000	23.468396
5640.000000	23.513774
5638.000000	23.559358
5636.000000	23.605742
5634.000000	23.651320
5632.000000	23.696930
5630.000000	23.742532
5628.000000	23.787720
5626.000000	23.832866
5624.000000	23.877236
5622.000000	23.922336
5620.000000	23.967311
5618.000000	24.012417
5616.000000	24.057515
5614.000000	24.103033
5612.000000	24.148628
5610.000000	24.194046
5608.000000	24.240052
5606.000000	24.287061
5604.000000	24.333237
5602.000000	24.378475
5600.000000	24.422665
5598.000000	24.468305
5596.000000	24.513876
5594.000000	24.559858
5592.000000	24.606202
5590.000000	24.653388
5588.000000	24.701275
5586.000000	24.749023
5584.000000	24.795877
5582.000000	24.840740
5580.000000	24.886752
5578.000000	24.936240
5576.000000	24.987287
5574.000000	25.036506
5572.000000	25.082216
5570.000000	25.128722
5568.000000	25.176160
5566.000000	25.223096
5564.000000	25.269725
5562.000000	25.317630
5560.000000	25.366141
5558.000000	25.414848
5556.000000	25.462139
5554.000000	25.510150
5552.000000	25.558274
5550.000000	25.605782
5548.000000	25.652497
5546.000000	25.700102
5544.000000	25.748151
5542.000000	25.795205
5540.000000	25.840361
5538.000000	25.885994
5536.000000	25.933142
5534.000000	25.982222
5532.000000	26.031677
5530.000000	26.080098
5528.000000	26.126751
5526.000000	26.173526
5524.000000	26.221156
5522.000000	26.268833
5520.000000	26.314573
5518.000000	26.359939
5516.000000	26.406607
5514.000000	26.456940
5512.000000	26.505638
5510.000000	26.551237
5508.000000	26.596730
5506.000000	26.645137
5504.000000	26.694106
5502.000000	26.741485
5500.000000	26.789185
5498.000000	26.837381
5496.000000	26.882649
5494.000000	26.926928
5492.000000	26.974178
5490.000000	27.026724
5488.000000	27.079855
5486.000000	27.130388
5484.000000	27.181148
5482.000000	27.233152
5480.000000	27.280489
5478.000000	27.321299
5476.000000	27.364443
5474.000000	27.415765
5472.000000	27.468973
5470.000000	27.518221
5468.000000	27.566328
5466.000000	27.616285
5464.000000	27.665375
5462.000000	27.713142
5460.000000	27.761997
5458.000000	27.815008
5456.000000	27.869328
5454.000000	27.919259
5452.000000	27.963544
5450.000000	28.005679
5448.000000	28.048966
5446.000000	28.094709
5444.000000	28.142805
5442.000000	28.196272
5440.000000	28.250137
5438.000000	28.299833
5436.000000	28.347224
5434.000000	28.395034
5432.000000	28.441172
5430.000000	28.487742
5428.000000	28.539999
5426.000000	28.597980
5424.000000	28.654076
5422.000000	28.705832
5420.000000	28.755127
5418.000000	28.797248
5416.000000	28.831700
5414.000000	28.869227
5412.000000	28.917362
5410.000000	28.976522
5408.000000	29.036153
5406.000000	29.092922
5404.000000	29.145544
5402.000000	29.196009
5400.000000	29.242594
5398.000000	29.284135
5396.000000	29.323915
5394.000000	29.373078
5392.000000	29.431235
5390.000000	29.488155
5388.000000	29.535661
5386.000000	29.582683
5384.000000	29.636473
5382.000000	29.690729
5380.000000	29.737211
5378.000000	29.781945
5376.000000	29.832562
5374.000000	29.891092
5372.000000	29.949293
5370.000000	30.002809
5368.000000	30.052312
5366.000000	30.101627
5364.000000	30.153168
5362.000000	30.206381
5360.000000	30.257571
5358.000000	30.303228
5356.000000	30.342528
5354.000000	30.386130
5352.000000	30.437344
5350.000000	30.490413
5348.000000	30.535322
5346.000000	30.578602
5344.000000	30.628979
5342.000000	30.680549
5340.000000	30.729639
5338.000000	30.780719
5336.000000	30.839223
5334.000000	30.899570
5332.000000	30.952207
5330.000000	30.998146
5328.000000	31.045984
5326.000000	31.102136
5324.000000	31.161894
5322.000000	31.216779
5320.000000	31.265560
5318.000000	31.314238
5316.000000	31.364531
5314.000000	31.416791
5312.000000	31.467252
5310.000000	31.512832
5308.000000	31.558021
5306.000000	31.608329
5304.000000	31.662534
5302.000000	31.716459
5300.000000	31.770523
5298.000000	31.825690
5296.000000	31.878074
5294.000000	31.924364
5292.000000	31.968402
5290.000000	32.017208
5288.000000	32.071233
5286.000000	32.127157
5284.000000	32.180741
5282.000000	32.234387
5280.000000	32.288093
5278.000000	32.341476
5276.000000	32.393538
5274.000000	32.445867
5272.000000	32.497695
5270.000000	32.547965
5268.000000	32.593036
5266.000000	32.635463
5264.000000	32.682073
5262.000000	32.739237
5260.000000	32.800459
5258.000000	32.856390
5256.000000	32.906780
5254.000000	32.957889
5252.000000	33.007822
5250.000000	33.053186
5248.000000	33.097999
5246.000000	33.150097
5244.000000	33.210372
5242.000000	33.271872
5240.000000	33.329501
5238.000000	33.381739
5236.000000	33.430461
5234.000000	33.479263
5232.000000	33.529464
5230.000000	33.579310
5228.000000	33.625636
5226.000000	33.673527
5224.000000	33.728343
5222.000000	33.787597
5220.000000	33.843817
5218.000000	33.896958
5216.000000	33.950833
5214.000000	34.004981
5212.000000	34.053353
5210.000000	34.093320
5208.000000	34.134777
5206.000000	34.189249
5204.000000	34.253429
5202.000000	34.315877
5200.000000	34.370383
5198.000000	34.421756
5196.000000	34.474528
5194.000000	34.531973
5192.000000	34.589099
5190.000000	34.642317
5188.000000	34.692102
5186.000000	34.744422
5184.000000	34.798887
5182.000000	34.854189
5180.000000	34.909708
5178.000000	34.966443
5176.000000	35.023212
5174.000000	35.078081
5172.000000	35.131373
5170.000000	35.184620
5168.000000	35.238332
5166.000000	35.291461
5164.000000	35.343005
5162.000000	35.396461
5160.000000	35.452555
5158.000000	35.508872
5156.000000	35.563248
5154.000000	35.617452
5152.000000	35.672259
5150.000000	35.727351
5148.000000	35.782463
5146.000000	35.836655
5144.000000	35.889248
5142.000000	35.942646
5140.000000	35.996786
5138.000000	36.050571
5136.000000	36.103699
5134.000000	36.157424
5132.000000	36.211865
5130.000000	36.267325
5128.000000	36.322289
5126.000000	36.375429
5124.000000	36.427714
5122.000000	36.480775
5120.000000	36.534186
5118.000000	36.588451
5116.000000	36.643831
5114.000000	36.699351
5112.000000	36.753459
5110.000000	36.808224
5108.000000	36.861926
5106.000000	36.916020
5104.000000	36.971242
5102.000000	37.027640
5100.000000	37.084410
5098.000000	37.141325
5096.000000	37.198520
5094.000000	37.254381
5092.000000	37.309670
5090.000000	37.365873
5088.000000	37.421645
5086.000000	37.478321
5084.000000	37.534941
5082.000000	37.591791
5080.000000	37.648086
5078.000000	37.703825
5076.000000	37.760028
5074.000000	37.817161
5072.000000	37.874528
5070.000000	37.931454
5068.000000	37.988065
5066.000000	38.045274
5064.000000	38.101588
5062.000000	38.157084
5060.000000	38.214074
5058.000000	38.272426
5056.000000	38.329845
5054.000000	38.383846
5052.000000	38.435780
5050.000000	38.489965
5048.000000	38.546278
5046.000000	38.603832
5044.000000	38.659954
5042.000000	38.716939
5040.000000	38.773735
5038.000000	38.829906
5036.000000	38.884369
5034.000000	38.939639
5032.000000	38.994886
5030.000000	39.050196
5028.000000	39.105706
5026.000000	39.161709
5024.000000	39.216857
5022.000000	39.271348
5020.000000	39.328037
5018.000000	39.387486
5016.000000	39.445843
5014.000000	39.501506
5012.000000	39.556500
5010.000000	39.613653
5008.000000	39.670585
5006.000000	39.727715
5004.000000	39.785522
5002.000000	39.842897
5000.000000	39.899500
4998.000000	39.956800
4996.000000	40.014473
4994.000000	40.072365
4992.000000	40.130309
4990.000000	40.188870
4988.000000	40.247318
4986.000000	40.306329
4984.000000	40.363560
4982.000000	40.419906
4980.000000	40.476815
4978.000000	40.534980
4976.000000	40.592861
4974.000000	40.650913
4972.000000	40.709377
4970.000000	40.767918
4968.000000	40.825467
4966.000000	40.882475
4964.000000	40.939169
4962.000000	40.996697
4960.000000	41.054620
4958.000000	41.112409
4956.000000	41.168213
4954.000000	41.224024
4952.000000	41.281988
4950.000000	41.341077
4948.000000	41.397997
4946.000000	41.454595
4944.000000	41.511733
4942.000000	41.568276
4940.000000	41.623777
4938.000000	41.679700
4936.000000	41.735700
4934.000000	41.792954
4932.000000	41.851384
4930.000000	41.908563
4928.000000	41.963792
4926.000000	42.018980
4924.000000	42.075896
4922.000000	42.133730
4920.000000	42.190737
4918.000000	42.246782
4916.000000	42.303431
4914.000000	42.362311
4912.000000	42.421095
4910.000000	42.478772
4908.000000	42.536634
4906.000000	42.596291
4904.000000	42.654912
4902.000000	42.711029
4900.000000	42.767686
4898.000000	42.827421
4896.000000	42.887291
4894.000000	42.947093
4892.000000	43.006796
4890.000000	43.068118
4888.000000	43.128920
4886.000000	43.189038
4884.000000	43.247615
4882.000000	43.305623
4880.000000	43.362905
4878.000000	43.420911
4876.000000	43.479706
4874.000000	43.538403
4872.000000	43.596491
4870.000000	43.655654
4868.000000	43.714911
4866.000000	43.773902
4864.000000	43.832513
4862.000000	43.890381
4860.000000	43.947066
4858.000000	44.004965
4856.000000	44.064285
4854.000000	44.124028
4852.000000	44.182297
4850.000000	44.239589
4848.000000	44.296003
4846.000000	44.353910
4844.000000	44.411950
4842.000000	44.468965
4840.000000	44.525479
4838.000000	44.583945
4836.000000	44.642358
4834.000000	44.699739
4832.000000	44.756176
4830.000000	44.813216
4828.000000	44.870129
4826.000000	44.927530
4824.000000	44.985511
4822.000000	45.044119
4820.000000	45.103772
4818.000000	45.163041
4816.000000	45.220928
4814.000000	45.279115
4812.000000	45.338678
4810.000000	45.398722
4808.000000	45.458212
4806.000000	45.517944
4804.000000	45.575963
4802.000000	45.635444
4800.000000	45.697665
4798.000000	45.760384
4796.000000	45.819855
4794.000000	45.878200
4792.000000	45.936549
4790.000000	45.996596
4788.000000	46.057443
4786.000000	46.117693
4784.000000	46.176231
4782.000000	46.236123
4780.000000	46.297544
4778.000000	46.359351
4776.000000	46.419457
4774.000000	46.478575
4772.000000	46.538077
4770.000000	46.599152
4768.000000	46.659648
4766.000000	46.717801
4764.000000	46.774407
4762.000000	46.833015
4760.000000	46.892108
4758.000000	46.950627
4756.000000	47.008518
4754.000000	47.067211
4752.000000	47.124685
4750.000000	47.183043
4748.000000	47.241965
4746.000000	47.301001
4744.000000	47.359000
4742.000000	47.417016
4740.000000	47.473824
4738.000000	47.530108
4736.000000	47.587530
4734.000000	47.648002
4732.000000	47.709866
4730.000000	47.769595
4728.000000	47.827015
4726.000000	47.885548
4724.000000	47.945314
4722.000000	48.004028
4720.000000	48.063155
4718.000000	48.124799
4716.000000	48.186922
4714.000000	48.248587
4712.000000	48.309093
4710.000000	48.369665
4708.000000	48.431093
4706.000000	48.494224
4704.000000	48.556768
4702.000000	48.619194
4700.000000	48.682047
4698.000000	48.744504
4696.000000	48.804524
4694.000000	48.864324
4692.000000	48.926831
4690.000000	48.992166
4688.000000	49.055729
4686.000000	49.117010
4684.000000	49.177306
4682.000000	49.237852
4680.000000	49.297814
4678.000000	49.358374
4676.000000	49.420614
4674.000000	49.484348
4672.000000	49.545238
4670.000000	49.604194
4668.000000	49.664530
4666.000000	49.726799
4664.000000	49.787656
4662.000000	49.848623
4660.000000	49.910139
4658.000000	49.971674
4656.000000	50.032027
4654.000000	50.091762
4652.000000	50.151936
4650.000000	50.213116
4648.000000	50.273424
4646.000000	50.333991
4644.000000	50.395506
4642.000000	50.456818
4640.000000	50.516062
4638.000000	50.576389
4636.000000	50.638628
4634.000000	50.701947
4632.000000	50.763120
4630.000000	50.822125
4628.000000	50.881443
4626.000000	50.942782
4624.000000	51.002809
4622.000000	51.062768
4620.000000	51.125001
4618.000000	51.188387
4616.000000	51.250995
4614.000000	51.314960
4612.000000	51.380770
4610.000000	51.446155
4608.000000	51.509731
4606.000000	51.573324
4604.000000	51.638639
4602.000000	51.705347
4600.000000	51.771170
4598.000000	51.835927
4596.000000	51.900716
4594.000000	51.965953
4592.000000	52.029424
4590.000000	52.091770
4588.000000	52.155183
4586.000000	52.219861
4584.000000	52.283750
4582.000000	52.347626
4580.000000	52.412285
4578.000000	52.476317
4576.000000	52.539600
4574.000000	52.602822
4572.000000	52.666386
4570.000000	52.730392
4568.000000	52.794100
4566.000000	52.856360
4564.000000	52.918961
4562.000000	52.983359
4560.000000	53.046949
4558.000000	53.108204
4556.000000	53.168915
4554.000000	53.232930
4552.000000	53.298787
4550.000000	53.362510
4548.000000	53.423288
4546.000000	53.485061
4544.000000	53.548177
4542.000000	53.609766
4540.000000	53.669601
4538.000000	53.731427
4536.000000	53.796343
4534.000000	53.861647
4532.000000	53.924798
4530.000000	53.986839
4528.000000	54.048360
4526.000000	54.111286
4524.000000	54.175406
4522.000000	54.240082
4520.000000	54.304413
4518.000000	54.368258
4516.000000	54.432028
4514.000000	54.498140
4512.000000	54.564128
4510.000000	54.627200
4508.000000	54.690268
4506.000000	54.756743
4504.000000	54.822889
4502.000000	54.887375
4500.000000	54.954180
4498.000000	55.022906
4496.000000	55.088682
4494.000000	55.152389
4492.000000	55.216371
4490.000000	55.280667
4488.000000	55.345227
4486.000000	55.410780
4484.000000	55.475744
4482.000000	55.539927
4480.000000	55.604044
4478.000000	55.668840
4476.000000	55.732829
4474.000000	55.796872
4472.000000	55.859958
4470.000000	55.922155
4468.000000	55.984019
4466.000000	56.046772
4464.000000	56.109462
4462.000000	56.171425
4460.000000	56.233044
4458.000000	56.296202
4456.000000	56.358764
4454.000000	56.420474
4452.000000	56.482420
4450.000000	56.544945
4448.000000	56.606506
4446.000000	56.666955
4444.000000	56.727893
4442.000000	56.791095
4440.000000	56.853028
4438.000000	56.914721
4436.000000	56.979362
4434.000000	57.043665
4432.000000	57.104925
4430.000000	57.167344
4428.000000	57.231748
4426.000000	57.296367
4424.000000	57.360580
4422.000000	57.423919
4420.000000	57.485352
4418.000000	57.547371
4416.000000	57.612219
4414.000000	57.678947
4412.000000	57.743744
4410.000000	57.806885
4408.000000	57.870620
4406.000000	57.935944
4404.000000	58.000932
4402.000000	58.065133
4400.000000	58.129274
4398.000000	58.194106
4396.000000	58.257839
4394.000000	58.320281
4392.000000	58.382642
4390.000000	58.446013
4388.000000	58.509066
4386.000000	58.571517
4384.000000	58.633457
4382.000000	58.694467
4380.000000	58.754926
4378.000000	58.816087
4376.000000	58.876846
4374.000000	58.936886
4372.000000	58.996320
4370.000000	59.055046
4368.000000	59.113778
4366.000000	59.173627
4364.000000	59.233820
4362.000000	59.295126
4360.000000	59.358145
4358.000000	59.421682
4356.000000	59.483529
4354.000000	59.544932
4352.000000	59.607115
4350.000000	59.670648
4348.000000	59.734865
4346.000000	59.799641
4344.000000	59.862944
4342.000000	59.924849
4340.000000	59.986751
4338.000000	60.050383
4336.000000	60.114508
4334.000000	60.177094
4332.000000	60.238364
4330.000000	60.301769
4328.000000	60.367308
4326.000000	60.434582
4324.000000	60.501734
4322.000000	60.568279
4320.000000	60.635594
4318.000000	60.704007
4316.000000	60.771074
4314.000000	60.838342
4312.000000	60.905690
4310.000000	60.972346
4308.000000	61.038161
4306.000000	61.104741
4304.000000	61.171134
4302.000000	61.237703
4300.000000	61.305008
4298.000000	61.372177
4296.000000	61.437135
4294.000000	61.501688
4292.000000	61.565247
4290.000000	61.626732
4288.000000	61.687662
4286.000000	61.749933
4284.000000	61.811879
4282.000000	61.873029
4280.000000	61.933007
4278.000000	61.992533
4276.000000	62.051916
4274.000000	62.111587
4272.000000	62.171008
4270.000000	62.230762
4268.000000	62.289476
4266.000000	62.348019
4264.000000	62.408451
4262.000000	62.471953
4260.000000	62.536581
4258.000000	62.601164
4256.000000	62.663824
4254.000000	62.726538
4252.000000	62.789476
4250.000000	62.851941
4248.000000	62.915263
4246.000000	62.980542
4244.000000	63.044475
4242.000000	63.108575
4240.000000	63.173736
4238.000000	63.239056
4236.000000	63.303778
4234.000000	63.369719
4232.000000	63.434273
4230.000000	63.496559
4228.000000	63.559716
4226.000000	63.625034
4224.000000	63.689573
4222.000000	63.753773
4220.000000	63.818163
4218.000000	63.883303
4216.000000	63.947981
4214.000000	64.012725
4212.000000	64.077421
4210.000000	64.142867
4208.000000	64.209593
4206.000000	64.276870
4204.000000	64.344426
4202.000000	64.413406
4200.000000	64.481550
4198.000000	64.548815
4196.000000	64.615237
4194.000000	64.682195
4192.000000	64.750150
4190.000000	64.818597
4188.000000	64.887189
4186.000000	64.956174
4184.000000	65.023993
4182.000000	65.091133
4180.000000	65.156645
4178.000000	65.220759
4176.000000	65.284602
4174.000000	65.349326
4172.000000	65.413721
4170.000000	65.477820
4168.000000	65.542034
4166.000000	65.607248
4164.000000	65.672489
4162.000000	65.736267
4160.000000	65.798700
4158.000000	65.862111
4156.000000	65.926757
4154.000000	65.992771
4152.000000	66.058836
4150.000000	66.123993
4148.000000	66.188495
4146.000000	66.253387
4144.000000	66.318842
4142.000000	66.384788
4140.000000	66.449426
4138.000000	66.513726
4136.000000	66.579644
4134.000000	66.646121
4132.000000	66.712095
4130.000000	66.779630
4128.000000	66.845617
4126.000000	66.909692
4124.000000	66.974928
4122.000000	67.041511
4120.000000	67.107536
4118.000000	67.172919
4116.000000	67.238872
4114.000000	67.307587
4112.000000	67.375044
4110.000000	67.439456
4108.000000	67.502259
4106.000000	67.564952
4104.000000	67.629521
4102.000000	67.696105
4100.000000	67.760765
4098.000000	67.823756
4096.000000	67.886992
4094.000000	67.951564
4092.000000	68.017184
4090.000000	68.084495
4088.000000	68.152614
4086.000000	68.222473
4084.000000	68.293566
4082.000000	68.362615
4080.000000	68.429400
4078.000000	68.497172
4076.000000	68.563557
4074.000000	68.628269
4072.000000	68.693276
4070.000000	68.759205
4068.000000	68.825043
4066.000000	68.891068
4064.000000	68.955733
4062.000000	69.019072
4060.000000	69.083020
4058.000000	69.148346
4056.000000	69.213372
4054.000000	69.278336
4052.000000	69.342438
4050.000000	69.406676
4048.000000	69.469995
4046.000000	69.533383
4044.000000	69.599624
4042.000000	69.667108
4040.000000	69.734226
4038.000000	69.802650
4036.000000	69.870008
4034.000000	69.936435
4032.000000	70.003233
4030.000000	70.069708
4028.000000	70.136088
4026.000000	70.204595
4024.000000	70.274208
4022.000000	70.342577
4020.000000	70.410445
4018.000000	70.479920
4016.000000	70.548065
4014.000000	70.615972
4012.000000	70.684794
4010.000000	70.752433
4008.000000	70.820607
4006.000000	70.891013
4004.000000	70.960579
4002.000000	71.029318
4000.000000	71.095854
3998.000000	71.159538
3996.000000	71.222536
3994.000000	71.287464
3992.000000	71.353291
3990.000000	71.419271
3988.000000	71.485257
3986.000000	71.550413
3984.000000	71.613281
3982.000000	71.676726
3980.000000	71.740374
3978.000000	71.800561
3976.000000	71.858926
3974.000000	71.921560
3972.000000	71.985661
3970.000000	72.047718
3968.000000	72.109729
3966.000000	72.171597
3964.000000	72.228575
3962.000000	72.286614
3960.000000	72.351494
3958.000000	72.417161
3956.000000	72.478650
3954.000000	72.534896
3952.000000	72.579828
3950.000000	72.622954
3948.000000	72.684178
3946.000000	72.750299
3944.000000	72.803234
3942.000000	72.871411
3940.000000	72.961353
3938.000000	73.040996
3936.000000	73.087142
3934.000000	73.108424
3932.000000	73.155311
3930.000000	73.247112
3928.000000	73.329279
3926.000000	73.382387
3924.000000	73.443661
3922.000000	73.504721
3920.000000	73.535563
3918.000000	73.578885
3916.000000	73.685462
3914.000000	73.816727
3912.000000	73.915638
3910.000000	73.974754
3908.000000	73.963497
3906.000000	73.868008
3904.000000	73.791060
3902.000000	73.826952
3900.000000	73.972867
3898.000000	74.184452
3896.000000	74.345468
3894.000000	74.358223
3892.000000	74.337353
3890.000000	74.403649
3888.000000	74.425367
3886.000000	74.416584
3884.000000	74.520838
3882.000000	74.634548
3880.000000	74.735577
3878.000000	74.860123
3876.000000	74.908029
3874.000000	74.866186
3872.000000	74.761419
3870.000000	74.744472
3868.000000	74.892562
3866.000000	75.015739
3864.000000	75.107626
3862.000000	75.262169
3860.000000	75.394668
3858.000000	75.273212
3856.000000	74.776326
3854.000000	74.444623
3852.000000	74.805729
3850.000000	75.446783
3848.000000	75.806034
3846.000000	75.875073
3844.000000	75.845005
3842.000000	75.761348
3840.000000	75.574467
3838.000000	75.500810
3836.000000	75.723600
3834.000000	76.004452
3832.000000	76.183363
3830.000000	76.323697
3828.000000	76.421667
3826.000000	76.459138
3824.000000	76.371905
3822.000000	76.256607
3820.000000	76.291032
3818.000000	76.306020
3816.000000	76.367212
3814.000000	76.683849
3812.000000	76.964301
3810.000000	76.953442
3808.000000	76.827041
3806.000000	76.838982
3804.000000	76.815063
3802.000000	76.737635
3800.000000	76.923891
3798.000000	77.209303
3796.000000	77.388017
3794.000000	77.537753
3792.000000	77.652158
3790.000000	77.719664
3788.000000	77.760134
3786.000000	77.793132
3784.000000	77.837042
3782.000000	77.859531
3780.000000	77.878318
3778.000000	77.971797
3776.000000	78.095677
3774.000000	78.144780
3772.000000	78.096584
3770.000000	78.071930
3768.000000	78.145120
3766.000000	78.253907
3764.000000	78.354907
3762.000000	78.387007
3760.000000	78.378802
3758.000000	78.430323
3756.000000	78.405696
3754.000000	78.119288
3752.000000	77.808999
3750.000000	77.849626
3748.000000	78.011740
3746.000000	77.918753
3744.000000	78.033334
3742.000000	78.552654
3740.000000	78.837023
3738.000000	78.729903
3736.000000	78.628060
3734.000000	78.715743
3732.000000	78.942156
3730.000000	79.201811
3728.000000	79.331747
3726.000000	79.373861
3724.000000	79.440271
3722.000000	79.532069
3720.000000	79.642404
3718.000000	79.742582
3716.000000	79.736583
3714.000000	79.567829
3712.000000	79.463339
3710.000000	79.623356
3708.000000	79.893521
3706.000000	80.063731
3704.000000	80.090936
3702.000000	80.103392
3700.000000	80.205909
3698.000000	80.321334
3696.000000	80.373018
3694.000000	80.326087
3692.000000	80.129163
3690.000000	79.901972
3688.000000	79.988528
3686.000000	80.365507
3684.000000	80.627722
3682.000000	80.672632
3680.000000	80.562945
3678.000000	80.268400
3676.000000	80.062465
3674.000000	80.171844
3672.000000	80.257837
3670.000000	80.347375
3668.000000	80.664184
3666.000000	80.957186
3664.000000	81.076259
3662.000000	81.110073
3660.000000	81.070798
3658.000000	80.948376
3656.000000	80.913710
3654.000000	80.940172
3652.000000	80.749482
3650.000000	80.523708
3648.000000	80.644968
3646.000000	80.993158
3644.000000	81.241189
3642.000000	81.333140
3640.000000	81.365589
3638.000000	81.380143
3636.000000	81.369918
3634.000000	81.314560
3632.000000	81.105615
3630.000000	80.836137
3628.000000	80.912961
3626.000000	81.251653
3624.000000	81.420582
3622.000000	81.336424
3620.000000	81.210366
3618.000000	81.239420
3616.000000	81.322826
3614.000000	81.319947
3612.000000	81.271759
3610.000000	81.237236
3608.000000	81.300092
3606.000000	81.441135
3604.000000	81.519441
3602.000000	81.515721
3600.000000	81.499037
3598.000000	81.482418
3596.000000	81.460876
3594.000000	81.466500
3592.000000	81.456639
3590.000000	81.354639
3588.000000	81.272346
3586.000000	81.343583
3584.000000	81.467000
3582.000000	81.521699
3580.000000	81.525663
3578.000000	81.521159
3576.000000	81.518241
3574.000000	81.516393
3572.000000	81.482654
3570.000000	81.371538
3568.000000	81.261339
3566.000000	81.285038
3564.000000	81.384192
3562.000000	81.438486
3560.000000	81.454022
3558.000000	81.463443
3556.000000	81.454380
3554.000000	81.426161
3552.000000	81.410925
3550.000000	81.399123
3548.000000	81.356340
3546.000000	81.324560
3544.000000	81.341801
3542.000000	81.371400
3540.000000	81.373604
3538.000000	81.351401
3536.000000	81.330858
3534.000000	81.318089
3532.000000	81.289824
3530.000000	81.241305
3528.000000	81.192938
3526.000000	81.150336
3524.000000	81.112450
3522.000000	81.089076
3520.000000	81.069948
3518.000000	81.042965
3516.000000	81.010920
3514.000000	80.972349
3512.000000	80.922109
3510.000000	80.869276
3508.000000	80.826160
3506.000000	80.773492
3504.000000	80.706320
3502.000000	80.655598
3500.000000	80.618087
3498.000000	80.568569
3496.000000	80.511419
3494.000000	80.460488
3492.000000	80.410450
3490.000000	80.354588
3488.000000	80.300809
3486.000000	80.257250
3484.000000	80.217667
3482.000000	80.184654
3480.000000	80.169372
3478.000000	80.165956
3476.000000	80.160966
3474.000000	80.160191
3472.000000	80.169536
3470.000000	80.181767
3468.000000	80.198488
3466.000000	80.226496
3464.000000	80.260679
3462.000000	80.298697
3460.000000	80.339712
3458.000000	80.376644
3456.000000	80.408034
3454.000000	80.436100
3452.000000	80.458599
3450.000000	80.468861
3448.000000	80.475434
3446.000000	80.501652
3444.000000	80.545728
3442.000000	80.601756
3440.000000	80.673665
3438.000000	80.760182
3436.000000	80.864643
3434.000000	80.988966
3432.000000	81.126013
3430.000000	81.267859
3428.000000	81.409663
3426.000000	81.545582
3424.000000	81.668342
3422.000000	81.777230
3420.000000	81.885085
3418.000000	81.994047
3416.000000	82.090108
3414.000000	82.171307
3412.000000	82.244998
3410.000000	82.312191
3408.000000	82.373196
3406.000000	82.429632
3404.000000	82.481941
3402.000000	82.534244
3400.000000	82.594185
3398.000000	82.667135
3396.000000	82.743978
3394.000000	82.812896
3392.000000	82.882071
3390.000000	82.958821
3388.000000	83.031704
3386.000000	83.093006
3384.000000	83.149836
3382.000000	83.207760
3380.000000	83.262203
3378.000000	83.312629
3376.000000	83.362867
3374.000000	83.410666
3372.000000	83.451580
3370.000000	83.486879
3368.000000	83.526080
3366.000000	83.574743
3364.000000	83.624708
3362.000000	83.669995
3360.000000	83.713740
3358.000000	83.757672
3356.000000	83.799201
3354.000000	83.838999
3352.000000	83.877129
3350.000000	83.915853
3348.000000	83.959412
3346.000000	84.003725
3344.000000	84.044368
3342.000000	84.083547
3340.000000	84.121604
3338.000000	84.158684
3336.000000	84.199739
3334.000000	84.242907
3332.000000	84.283768
3330.000000	84.320294
3328.000000	84.354570
3326.000000	84.391918
3324.000000	84.430658
3322.000000	84.468930
3320.000000	84.506134
3318.000000	84.540801
3316.000000	84.573848
3314.000000	84.607784
3312.000000	84.642014
3310.000000	84.671603
3308.000000	84.696448
3306.000000	84.725433
3304.000000	84.766566
3302.000000	84.811911
3300.000000	84.851886
3298.000000	84.888085
3296.000000	84.921891
3294.000000	84.953219
3292.000000	84.986552
3290.000000	85.027436
3288.000000	85.069239
3286.000000	85.108058
3284.000000	85.147518
3282.000000	85.186197
3280.000000	85.223031
3278.000000	85.257042
3276.000000	85.290772
3274.000000	85.327347
3272.000000	85.366021
3270.000000	85.408934
3268.000000	85.456405
3266.000000	85.501563
3264.000000	85.543467
3262.000000	85.587031
3260.000000	85.632892
3258.000000	85.675412
3256.000000	85.715588
3254.000000	85.761605
3252.000000	85.811880
3250.000000	85.859777
3248.000000	85.905737
3246.000000	85.950841
3244.000000	86.000892
3242.000000	86.054503
3240.000000	86.106000
3238.000000	86.155633
3236.000000	86.203713
3234.000000	86.248574
3232.000000	86.294765
3230.000000	86.346306
3228.000000	86.397452
3226.000000	86.448268
3224.000000	86.499573
3222.000000	86.546885
3220.000000	86.591480
3218.000000	86.639472
3216.000000	86.687963
3214.000000	86.734900
3212.000000	86.785230
3210.000000	86.838243
3208.000000	86.897104
3206.000000	86.960436
3204.000000	87.026283
3202.000000	87.095775
3200.000000	87.165357
3198.000000	87.234405
3196.000000	87.306032
3194.000000	87.378824
3192.000000	87.450344
3190.000000	87.521856
3188.000000	87.592782
3186.000000	87.662614
3184.000000	87.733605
3182.000000	87.805380
3180.000000	87.874170
3178.000000	87.942705
3176.000000	88.017029
3174.000000	88.091624
3172.000000	88.162324
3170.000000	88.234306
3168.000000	88.308457
3166.000000	88.382828
3164.000000	88.457761
3162.000000	88.534232
3160.000000	88.613221
3158.000000	88.692034
3156.000000	88.769006
3154.000000	88.843833
3152.000000	88.919215
3150.000000	88.998724
3148.000000	89.077986
3146.000000	89.154361
3144.000000	89.228584
3142.000000	89.300594
3140.000000	89.371163
3138.000000	89.442724
3136.000000	89.512916
3134.000000	89.578929
3132.000000	89.645778
3130.000000	89.714333
3128.000000	89.778067
3126.000000	89.837683
3124.000000	89.896193
3122.000000	89.950908
3120.000000	90.002663
3118.000000	90.054834
3116.000000	90.110094
3114.000000	90.168013
3112.000000	90.224350
3110.000000	90.275442
3108.000000	90.327571
3106.000000	90.384950
3104.000000	90.443030
3102.000000	90.502190
3100.000000	90.566295
3098.000000	90.632141
3096.000000	90.696242
3094.000000	90.761061
3092.000000	90.822994
3090.000000	90.881637
3088.000000	90.938723
3086.000000	90.992118
3084.000000	91.043827
3082.000000	91.090030
3080.000000	91.128589
3078.000000	91.166020
3076.000000	91.202661
3074.000000	91.230094
3072.000000	91.246177
3070.000000	91.253969
3068.000000	91.260239
3066.000000	91.277353
3064.000000	91.312179
3062.000000	91.361244
3060.000000	91.416466
3058.000000	91.473148
3056.000000	91.533092
3054.000000	91.594790
3052.000000	91.652082
3050.000000	91.702410
3048.000000	91.750109
3046.000000	91.790978
3044.000000	91.820964
3042.000000	91.846821
3040.000000	91.872208
3038.000000	91.890979
3036.000000	91.900433
3034.000000	91.900582
3032.000000	91.889264
3030.000000	91.855710
3028.000000	91.786221
3026.000000	91.677514
3024.000000	91.546739
3022.000000	91.427746
3020.000000	91.364729
3018.000000	91.394929
3016.000000	91.538456
3014.000000	91.776299
3012.000000	92.059366
3010.000000	92.333854
3008.000000	92.558725
3006.000000	92.720679
3004.000000	92.833516
3002.000000	92.912721
3000.000000	92.968649
2998.000000	93.008601
2996.000000	93.039133
2994.000000	93.061305
2992.000000	93.073008
2990.000000	93.072039
2988.000000	93.056093
2986.000000	93.021176
2984.000000	92.962020
2982.000000	92.874608
2980.000000	92.753913
2978.000000	92.588874
2976.000000	92.361793
2974.000000	92.054149
2972.000000	91.658236
2970.000000	91.176825
2968.000000	90.652583
2966.000000	90.168772
2964.000000	89.813692
2962.000000	89.643473
2960.000000	89.659131
2958.000000	89.800354
2956.000000	89.989174
2954.000000	90.171079
2952.000000	90.313497
2950.000000	90.383156
2948.000000	90.346986
2946.000000	90.182085
2944.000000	89.885927
2942.000000	89.472602
2940.000000	88.978930
2938.000000	88.465553
2936.000000	87.991668
2934.000000	87.569909
2932.000000	87.170665
2930.000000	86.779897
2928.000000	86.449812
2926.000000	86.286701
2924.000000	86.396791
2922.000000	86.821004
2920.000000	87.501245
2918.000000	88.321660
2916.000000	89.176418
2914.000000	89.979368
2912.000000	90.668188
2910.000000	91.217109
2908.000000	91.646380
2906.000000	91.997277
2904.000000	92.299739
2902.000000	92.572737
2900.000000	92.829044
2898.000000	93.068330
2896.000000	93.293967
2894.000000	93.509305
2892.000000	93.712513
2890.000000	93.898890
2888.000000	94.062011
2886.000000	94.190588
2884.000000	94.278206
2882.000000	94.322094
2880.000000	94.319910
2878.000000	94.265719
2876.000000	94.154307
2874.000000	93.976182
2872.000000	93.719828
2870.000000	93.358464
2868.000000	92.871338
2866.000000	92.295186
2864.000000	91.752399
2862.000000	91.399556
2860.000000	91.325435
2858.000000	91.493559
2856.000000	91.795940
2854.000000	92.154072
2852.000000	92.567178
2850.000000	93.076431
2848.000000	93.683275
2846.000000	94.301632
2844.000000	94.841762
2842.000000	95.275257
2840.000000	95.615119
2838.000000	95.885406
2836.000000	96.106344
2834.000000	96.289012
2832.000000	96.444492
2830.000000	96.579039
2828.000000	96.699228
2826.000000	96.809178
2824.000000	96.911904
2822.000000	97.005918
2820.000000	97.089554
2818.000000	97.165979
2816.000000	97.238238
2814.000000	97.303295
2812.000000	97.361828
2810.000000	97.414619
2808.000000	97.464513
2806.000000	97.512174
2804.000000	97.558069
2802.000000	97.602706
2800.000000	97.644974
2798.000000	97.685577
2796.000000	97.725374
2794.000000	97.766373
2792.000000	97.813682
2790.000000	97.871444
2788.000000	97.942218
2786.000000	98.021748
2784.000000	98.104609
2782.000000	98.183537
2780.000000	98.258965
2778.000000	98.328462
2776.000000	98.389949
2774.000000	98.448180
2772.000000	98.505133
2770.000000	98.556481
2768.000000	98.605175
2766.000000	98.654321
2764.000000	98.702262
2762.000000	98.747832
2760.000000	98.793805
2758.000000	98.838335
2756.000000	98.881055
2754.000000	98.922249
2752.000000	98.963505
2750.000000	99.001695
2748.000000	99.039048
2746.000000	99.075469
2744.000000	99.109693
2742.000000	99.143079
2740.000000	99.178891
2738.000000	99.214157
2736.000000	99.247588
2734.000000	99.281116
2732.000000	99.315345
2730.000000	99.347031
2728.000000	99.379522
2726.000000	99.412667
2724.000000	99.445466
2722.000000	99.477121
2720.000000	99.508143
2718.000000	99.537807
2716.000000	99.567992
2714.000000	99.595994
2712.000000	99.621898
2710.000000	99.644526
2708.000000	99.668374
2706.000000	99.695185
2704.000000	99.724102
2702.000000	99.759549
2700.000000	99.805603
2698.000000	99.854793
2696.000000	99.902954
2694.000000	99.947879
2692.000000	99.991004
2690.000000	100.031603
2688.000000	100.070631
2686.000000	100.109839
2684.000000	100.149683
2682.000000	100.188098
2680.000000	100.223226
2678.000000	100.256196
2676.000000	100.289179
2674.000000	100.321662
2672.000000	100.353508
2670.000000	100.382726
2668.000000	100.412600
2666.000000	100.440319
2664.000000	100.467159
2662.000000	100.496413
2660.000000	100.527740
2658.000000	100.559808
2656.000000	100.593539
2654.000000	100.629059
2652.000000	100.667782
2650.000000	100.707341
2648.000000	100.747268
2646.000000	100.785923
2644.000000	100.823447
2642.000000	100.859514
2640.000000	100.894723
2638.000000	100.930113
2636.000000	100.965353
2634.000000	100.997601
2632.000000	101.028578
2630.000000	101.058155
2628.000000	101.088033
2626.000000	101.115342
2624.000000	101.142181
2622.000000	101.169821
2620.000000	101.198468
2618.000000	101.226140
2616.000000	101.253402
2614.000000	101.278476
2612.000000	101.301451
2610.000000	101.322509
2608.000000	101.342584
2606.000000	101.360493
2604.000000	101.375875
2602.000000	101.387523
2600.000000	101.399299
2598.000000	101.410797
2596.000000	101.421473
2594.000000	101.434463
2592.000000	101.457816
2590.000000	101.489992
2588.000000	101.531303
2586.000000	101.582174
2584.000000	101.640773
2582.000000	101.703278
2580.000000	101.766821
2578.000000	101.825345
2576.000000	101.878193
2574.000000	101.925876
2572.000000	101.968103
2570.000000	102.005912
2568.000000	102.043291
2566.000000	102.079513
2564.000000	102.113679
2562.000000	102.144850
2560.000000	102.173003
2558.000000	102.200010
2556.000000	102.229037
2554.000000	102.256535
2552.000000	102.283077
2550.000000	102.308179
2548.000000	102.334933
2546.000000	102.362074
2544.000000	102.388180
2542.000000	102.412092
2540.000000	102.437809
2538.000000	102.465816
2536.000000	102.495016
2534.000000	102.521688
2532.000000	102.547927
2530.000000	102.573664
2528.000000	102.597723
2526.000000	102.621403
2524.000000	102.647490
2522.000000	102.671678
2520.000000	102.696215
2518.000000	102.720385
2516.000000	102.743842
2514.000000	102.764900
2512.000000	102.786901
2510.000000	102.809984
2508.000000	102.832327
2506.000000	102.853794
2504.000000	102.874282
2502.000000	102.894756
2500.000000	102.919355
2498.000000	102.945276
2496.000000	102.971243
2494.000000	102.997142
2492.000000	103.024796
2490.000000	103.050294
2488.000000	103.075402
2486.000000	103.100874
2484.000000	103.127449
2482.000000	103.153782
2480.000000	103.179203
2478.000000	103.202162
2476.000000	103.224863
2474.000000	103.246017
2472.000000	103.266333
2470.000000	103.284535
2468.000000	103.302487
2466.000000	103.321728
2464.000000	103.340209
2462.000000	103.355210
2460.000000	103.372015
2458.000000	103.388333
2456.000000	103.405040
2454.000000	103.421213
2452.000000	103.436940
2450.000000	103.452942
2448.000000	103.471759
2446.000000	103.488869
2444.000000	103.505256
2442.000000	103.519255
2440.000000	103.533833
2438.000000	103.548903
2436.000000	103.564157
2434.000000	103.577403
2432.000000	103.591333
2430.000000	103.603855
2428.000000	103.614820
2426.000000	103.626365
2424.000000	103.643476
2422.000000	103.659905
2420.000000	103.674757
2418.000000	103.687706
2416.000000	103.701235
2414.000000	103.712391
2412.000000	103.721947
2410.000000	103.734655
2408.000000	103.749182
2406.000000	103.761769
2404.000000	103.776057
2402.000000	103.791800
2400.000000	103.808998
2398.000000	103.824970
2396.000000	103.841658
2394.000000	103.858068
2392.000000	103.876213
2390.000000	103.893922
2388.000000	103.908496
2386.000000	103.914372
2384.000000	103.910951
2382.000000	103.889959
2380.000000	103.841436
2378.000000	103.757802
2376.000000	103.637757
2374.000000	103.480247
2372.000000	103.296906
2370.000000	103.102080
2368.000000	102.916757
2366.000000	102.761044
2364.000000	102.658232
2362.000000	102.625731
2360.000000	102.673017
2358.000000	102.797254
2356.000000	102.992281
2354.000000	103.246010
2352.000000	103.528895
2350.000000	103.733476
2348.000000	103.723522
2346.000000	103.544498
2344.000000	103.353255
2342.000000	103.212268
2340.000000	103.131120
2338.000000	103.098066
2336.000000	103.099996
2334.000000	103.126515
2332.000000	103.176722
2330.000000	103.248867
2328.000000	103.334678
2326.000000	103.428138
2324.000000	103.528679
2322.000000	103.626977
2320.000000	103.720874
2318.000000	103.803998
2316.000000	103.879009
2314.000000	103.945001
2312.000000	104.003239
2310.000000	104.054660
2308.000000	104.099796
2306.000000	104.135655
2304.000000	104.163422
2302.000000	104.186194
2300.000000	104.209780
2298.000000	104.227691
2296.000000	104.242783
2294.000000	104.257925
2292.000000	104.273415
2290.000000	104.282950
2288.000000	104.291307
2286.000000	104.299090
2284.000000	104.304825
2282.000000	104.305805
2280.000000	104.305873
2278.000000	104.302451
2276.000000	104.297136
2274.000000	104.289916
2272.000000	104.283888
2270.000000	104.277788
2268.000000	104.272824
2266.000000	104.267789
2264.000000	104.263176
2262.000000	104.258557
2260.000000	104.259114
2258.000000	104.258968
2256.000000	104.258323
2254.000000	104.259568
2252.000000	104.264686
2250.000000	104.270025
2248.000000	104.276088
2246.000000	104.286021
2244.000000	104.299592
2242.000000	104.309229
2240.000000	104.320074
2238.000000	104.333085
2236.000000	104.347919
2234.000000	104.360414
2232.000000	104.374681
2230.000000	104.389330
2228.000000	104.403517
2226.000000	104.414583
2224.000000	104.426241
2222.000000	104.436203
2220.000000	104.445103
2218.000000	104.450669
2216.000000	104.456834
2214.000000	104.461959
2212.000000	104.467926
2210.000000	104.471085
2208.000000	104.476575
2206.000000	104.483076
2204.000000	104.488733
2202.000000	104.490918
2200.000000	104.495396
2198.000000	104.499700
2196.000000	104.504181
2194.000000	104.506285
2192.000000	104.507402
2190.000000	104.505839
2188.000000	104.507509
2186.000000	104.508456
2184.000000	104.508180
2182.000000	104.505372
2180.000000	104.504946
2178.000000	104.503666
2176.000000	104.501666
2174.000000	104.492060
2172.000000	104.468094
2170.000000	104.440742
2168.000000	104.452792
2166.000000	104.476741
2164.000000	104.486051
2162.000000	104.487966
2160.000000	104.487551
2158.000000	104.485248
2156.000000	104.482687
2154.000000	104.480972
2152.000000	104.481890
2150.000000	104.480551
2148.000000	104.480491
2146.000000	104.479180
2144.000000	104.479414
2142.000000	104.476828
2140.000000	104.475399
2138.000000	104.472753
2136.000000	104.469755
2134.000000	104.466313
2132.000000	104.465741
2130.000000	104.465609
2128.000000	104.466154
2126.000000	104.466419
2124.000000	104.464826
2122.000000	104.463959
2120.000000	104.466739
2118.000000	104.470535
2116.000000	104.474906
2114.000000	104.480405
2112.000000	104.490980
2110.000000	104.503879
2108.000000	104.515348
2106.000000	104.526079
2104.000000	104.538793
2102.000000	104.551955
2100.000000	104.565014
2098.000000	104.577264
2096.000000	104.591187
2094.000000	104.602521
2092.000000	104.614763
2090.000000	104.623701
2088.000000	104.639465
2086.000000	104.656054
2084.000000	104.672829
2082.000000	104.688955
2080.000000	104.708843
2078.000000	104.722915
2076.000000	104.738032
2074.000000	104.753582
2072.000000	104.772756
2070.000000	104.790655
2068.000000	104.808205
2066.000000	104.820054
2064.000000	104.842033
2062.000000	104.868292
2060.000000	104.892162
2058.000000	104.911922
2056.000000	104.931894
2054.000000	104.951847
2052.000000	104.973769
2050.000000	104.994478
2048.000000	105.016697
2046.000000	105.033356
2044.000000	105.048866
2042.000000	105.060642
2040.000000	105.079818
2038.000000	105.099498
2036.000000	105.112290
2034.000000	105.118587
2032.000000	105.116599
2030.000000	105.100284
2028.000000	105.112501
2026.000000	105.147088
2024.000000	105.166342
2022.000000	105.174763
2020.000000	105.179296
2018.000000	105.178430
2016.000000	105.199918
2014.000000	105.231803
2012.000000	105.254435
2010.000000	105.269193
2008.000000	105.284890
2006.000000	105.297400
2004.000000	105.307532
2002.000000	105.314388
2000.000000	105.319815
1998.000000	105.324176
1996.000000	105.325012
1994.000000	105.297922
1992.000000	105.274664
1990.000000	105.292733
1988.000000	105.309287
1986.000000	105.312565
1984.000000	105.310707
1982.000000	105.300894
1980.000000	105.288393
1978.000000	105.274820
1976.000000	105.261951
1974.000000	105.245060
1972.000000	105.224751
1970.000000	105.192435
1968.000000	105.147061
1966.000000	105.125664
1964.000000	105.118362
1962.000000	105.060713
1960.000000	104.939758
1958.000000	104.910414
1956.000000	104.992256
1954.000000	105.020371
1952.000000	105.000638
1950.000000	104.967390
1948.000000	104.945786
1946.000000	104.910184
1944.000000	104.841933
1942.000000	104.806891
1940.000000	104.842359
1938.000000	104.846805
1936.000000	104.825608
1934.000000	104.796820
1932.000000	104.773173
1930.000000	104.745198
1928.000000	104.715289
1926.000000	104.664724
1924.000000	104.590743
1922.000000	104.539902
1920.000000	104.461539
1918.000000	104.367181
1916.000000	104.412141
1914.000000	104.437124
1912.000000	104.382337
1910.000000	104.305442
1908.000000	104.259981
1906.000000	104.218756
1904.000000	104.170260
1902.000000	104.117274
1900.000000	104.072453
1898.000000	104.015527
1896.000000	103.957444
1894.000000	103.923708
1892.000000	103.878720
1890.000000	103.800483
1888.000000	103.816668
1886.000000	103.846210
1884.000000	103.838309
1882.000000	103.819115
1880.000000	103.799359
1878.000000	103.772861
1876.000000	103.750170
1874.000000	103.714568
1872.000000	103.612729
1870.000000	103.419518
1868.000000	103.388074
1866.000000	103.505330
1864.000000	103.559244
1862.000000	103.534853
1860.000000	103.501736
1858.000000	103.467135
1856.000000	103.439915
1854.000000	103.403661
1852.000000	103.366045
1850.000000	103.302801
1848.000000	103.190193
1846.000000	102.911286
1844.000000	102.734113
1842.000000	102.932329
1840.000000	103.060645
1838.000000	103.010697
1836.000000	102.956656
1834.000000	102.885851
1832.000000	102.703154
1830.000000	102.519451
1828.000000	102.524922
1826.000000	102.474807
1824.000000	102.458427
1822.000000	102.504016
1820.000000	102.465730
1818.000000	102.383360
1816.000000	102.319409
1814.000000	102.231177
1812.000000	102.092100
1810.000000	101.990660
1808.000000	101.950028
1806.000000	101.876148
1804.000000	101.729684
1802.000000	101.523526
1800.000000	101.400408
1798.000000	101.362099
1796.000000	101.237112
1794.000000	100.874126
1792.000000	100.653623
1790.000000	100.797894
1788.000000	100.851587
1786.000000	100.680152
1784.000000	100.549642
1782.000000	100.449395
1780.000000	100.344638
1778.000000	100.271717
1776.000000	100.058392
1774.000000	99.562987
1772.000000	99.302988
1770.000000	99.479156
1768.000000	99.560460
1766.000000	99.642091
1764.000000	99.512188
1762.000000	99.256845
1760.000000	99.228744
1758.000000	99.129964
1756.000000	98.993295
1754.000000	98.806025
1752.000000	98.341598
1750.000000	98.141620
1748.000000	98.189954
1746.000000	98.155827
1744.000000	98.003261
1742.000000	97.739092
1740.000000	97.486852
1738.000000	97.418850
1736.000000	96.880301
1734.000000	96.340578
1732.000000	96.793804
1730.000000	97.222587
1728.000000	97.307630
1726.000000	97.276530
1724.000000	97.191028
1722.000000	97.062543
1720.000000	96.552866
1718.000000	95.855652
1716.000000	95.953749
1714.000000	96.409505
1712.000000	96.606015
1710.000000	96.526207
1708.000000	96.292490
1706.000000	96.023263
1704.000000	95.864230
1702.000000	95.210806
1700.000000	94.724362
1698.000000	94.866008
1696.000000	94.792559
1694.000000	95.365494
1692.000000	95.861712
1690.000000	95.804381
1688.000000	95.512808
1686.000000	94.628735
1684.000000	94.286985
1682.000000	95.032036
1680.000000	95.441097
1678.000000	95.311618
1676.000000	94.917133
1674.000000	94.881786
1672.000000	94.877065
1670.000000	94.613335
1668.000000	94.708242
1666.000000	94.867481
1664.000000	94.643149
1662.000000	94.506592
1660.000000	94.598139
1658.000000	94.496714
1656.000000	93.742636
1654.000000	92.375729
1652.000000	92.426629
1650.000000	93.421969
1648.000000	93.307956
1646.000000	93.068550
1644.000000	93.402599
1642.000000	93.570818
1640.000000	93.377229
1638.000000	92.827485
1636.000000	92.193237
1634.000000	92.370508
1632.000000	92.698800
1630.000000	92.512889
1628.000000	92.168471
1626.000000	91.794790
1624.000000	91.266376
1622.000000	90.873482
1620.000000	90.456332
1618.000000	89.624520
1616.000000	89.164587
1614.000000	89.138387
1612.000000	88.653397
1610.000000	88.033517
1608.000000	87.715002
1606.000000	87.743337
1604.000000	87.938670
1602.000000	88.181132
1600.000000	88.413419
1598.000000	88.616277
1596.000000	88.766314
1594.000000	88.878899
1592.000000	88.942642
1590.000000	88.947391
1588.000000	88.907999
1586.000000	88.839707
1584.000000	88.764655
1582.000000	88.712447
1580.000000	88.599939
1578.000000	88.071739
1576.000000	87.693814
1574.000000	88.145621
1572.000000	88.256348
1570.000000	87.934993
1568.000000	87.909356
1566.000000	87.875360
1564.000000	87.595990
1562.000000	86.779558
1560.000000	85.531290
1558.000000	85.507465
1556.000000	86.347902
1554.000000	86.862291
1552.000000	87.288841
1550.000000	87.566103
1548.000000	87.746425
1546.000000	87.723818
1544.000000	87.541792
1542.000000	87.159911
1540.000000	86.986980
1538.000000	87.812598
1536.000000	88.620731
1534.000000	88.690936
1532.000000	88.918151
1530.000000	89.134306
1528.000000	89.029432
1526.000000	88.845314
1524.000000	88.600105
1522.000000	88.141719
1520.000000	88.168424
1518.000000	88.315860
1516.000000	88.202848
1514.000000	88.098507
1512.000000	87.907919
1510.000000	87.501677
1508.000000	86.529516
1506.000000	85.904396
1504.000000	85.908749
1502.000000	84.953762
1500.000000	82.529364
1498.000000	79.309169
1496.000000	76.799630
1494.000000	76.336587
1492.000000	77.436294
1490.000000	79.236470
1488.000000	81.161429
1486.000000	82.703738
1484.000000	83.712617
1482.000000	84.227908
1480.000000	84.467004
1478.000000	84.424064
1476.000000	84.147954
1474.000000	83.714024
1472.000000	83.520565
1470.000000	83.637713
1468.000000	83.446146
1466.000000	82.914444
1464.000000	82.528010
1462.000000	82.216378
1460.000000	81.341051
1458.000000	79.866888
1456.000000	78.830631
1454.000000	78.339745
1452.000000	77.818479
1450.000000	77.905887
1448.000000	78.750022
1446.000000	79.707830
1444.000000	80.183669
1442.000000	80.297363
1440.000000	80.221179
1438.000000	79.923655
1436.000000	79.910669
1434.000000	80.278528
1432.000000	80.351232
1430.000000	80.291780
1428.000000	80.315445
1426.000000	80.317844
1424.000000	80.221829
1422.000000	80.011419
1420.000000	79.569998
1418.000000	79.486355
1416.000000	79.594123
1414.000000	79.452325
1412.000000	79.095836
1410.000000	78.564664
1408.000000	77.813435
1406.000000	77.001912
1404.000000	76.532870
1402.000000	76.545686
1400.000000	76.792193
1398.000000	77.230504
1396.000000	77.614522
1394.000000	77.930345
1392.000000	78.232687
1390.000000	78.237635
1388.000000	77.939162
1386.000000	77.647834
1384.000000	77.536541
1382.000000	77.641916
1380.000000	77.741205
1378.000000	77.690432
1376.000000	77.544478
1374.000000	77.416556
1372.000000	77.370969
1370.000000	77.269958
1368.000000	77.112995
1366.000000	76.952294
1364.000000	76.733007
1362.000000	76.552734
1360.000000	76.449989
1358.000000	76.314316
1356.000000	76.119007
1354.000000	75.913052
1352.000000	75.704767
1350.000000	75.487036
1348.000000	75.267829
1346.000000	75.038764
1344.000000	74.790966
1342.000000	74.525442
1340.000000	74.277934
1338.000000	74.136924
1336.000000	74.057586
1334.000000	73.958525
1332.000000	73.807242
1330.000000	73.615791
1328.000000	73.393197
1326.000000	73.148566
1324.000000	72.884791
1322.000000	72.603377
1320.000000	72.298877
1318.000000	71.999446
1316.000000	71.702746
1314.000000	71.390436
1312.000000	71.074371
1310.000000	70.760823
1308.000000	70.432908
1306.000000	70.103047
1304.000000	69.764436
1302.000000	69.421136
1300.000000	69.075911
1298.000000	68.727418
1296.000000	68.369332
1294.000000	68.005465
1292.000000	67.624100
1290.000000	67.229484
1288.000000	66.831613
1286.000000	66.432532
1284.000000	66.017420
1282.000000	65.583652
1280.000000	65.125448
1278.000000	64.638033
1276.000000	64.101088
1274.000000	63.488271
1272.000000	62.760784
1270.000000	61.875802
1268.000000	60.771520
1266.000000	59.453852
1264.000000	58.086703
1262.000000	56.993292
1260.000000	56.446108
1258.000000	56.451362
1256.000000	56.738387
1254.000000	56.978117
1252.000000	56.973408
1250.000000	56.726637
1248.000000	56.328628
1246.000000	55.857364
1244.000000	55.349732
1242.000000	54.833979
1240.000000	54.326019
1238.000000	53.835900
1236.000000	53.358741
1234.000000	52.895085
1232.000000	52.441830
1230.000000	51.996986
1228.000000	51.552978
1226.000000	51.102100
1224.000000	50.641116
1222.000000	50.172937
1220.000000	49.681736
1218.000000	49.169859
1216.000000	48.648326
1214.000000	48.134866
1212.000000	47.643705
1210.000000	47.192890
1208.000000	46.776585
1206.000000	46.378641
1204.000000	45.980890
1202.000000	45.581903
1200.000000	45.189365
1198.000000	44.804439
1196.000000	44.415055
1194.000000	44.010709
1192.000000	43.590202
1190.000000	43.158940
1188.000000	42.717778
1186.000000	42.246428
1184.000000	41.660101
1182.000000	40.933287
1180.000000	40.372550
1178.000000	40.127313
1176.000000	39.894784
1174.000000	39.539098
1172.000000	39.113761
1170.000000	38.663775
1168.000000	38.196619
1166.000000	37.721634
1164.000000	37.249764
1162.000000	36.788488
1160.000000	36.332961
1158.000000	35.896198
1156.000000	35.474952
1154.000000	35.056157
1152.000000	34.631537
1150.000000	34.210474
1148.000000	33.780729
1146.000000	33.342605
1144.000000	32.911822
1142.000000	32.534554
1140.000000	32.223545
1138.000000	31.907380
1136.000000	31.545770
1134.000000	31.153793
1132.000000	30.737559
1130.000000	30.310729
1128.000000	29.887014
1126.000000	29.467757
1124.000000	29.040679
1122.000000	28.603961
1120.000000	28.154133
1118.000000	27.695897
1116.000000	27.229427
1114.000000	26.761853
1112.000000	26.293206
1110.000000	25.831326
1108.000000	25.378747
1106.000000	24.944015
1104.000000	24.525259
1102.000000	24.113119
1100.000000	23.699796
1098.000000	23.294044
1096.000000	22.899217
1094.000000	22.519509
1092.000000	22.153914
1090.000000	21.800439
1088.000000	21.456035
1086.000000	21.117412
1084.000000	20.770352
1082.000000	20.413493
1080.000000	20.074546
1078.000000	19.768627
1076.000000	19.490140
1074.000000	19.257890
1072.000000	19.043536
1070.000000	18.820587
1068.000000	18.590949
1066.000000	18.359879
1064.000000	18.124117
1062.000000	17.886620
1060.000000	17.639920
1058.000000	17.352703
1056.000000	16.965341
1054.000000	16.455393
1052.000000	15.948660
1050.000000	15.650710
1048.000000	15.616299
1046.000000	15.694534
1044.000000	15.693667
1042.000000	15.576644
1040.000000	15.390979
1038.000000	15.178156
1036.000000	14.950995
1034.000000	14.713044
1032.000000	14.463258
1030.000000	14.207140
1028.000000	13.942448
1026.000000	13.673700
1024.000000	13.403238
1022.000000	13.135147
1020.000000	12.880292
1018.000000	12.648981
1016.000000	12.436328
1014.000000	12.245366
1012.000000	12.075223
1010.000000	11.913907
1008.000000	11.747263
1006.000000	11.568094
1004.000000	11.372342
1002.000000	11.159833
1000.000000	10.932539
