PE IR       SUBTECH     SPECTRUM    ASCII       PEDS        4.00        
   -1
TE109A_017_90K_BG.ASC
20/04/21
12:36:59.00
20/04/21
12:36:59.00
Administrator
TE109A, Tuesday, April 21 2020, 017.
1000.000000
#HDR
-1
-1
#GR
cm-1
EGY
1.0
0.0
6000.000000
-2.000000
2501
8
104.052453
10.961255
#DATA
6000.000000	15.524447
5998.000000	15.555490
5996.000000	15.584055
5994.000000	15.612888
5992.000000	15.640976
5990.000000	15.671236
5988.000000	15.703202
5986.000000	15.735992
5984.000000	15.766802
5982.000000	15.798223
5980.000000	15.830304
5978.000000	15.862679
5976.000000	15.894435
5974.000000	15.926156
5972.000000	15.957423
5970.000000	15.988153
5968.000000	16.017539
5966.000000	16.048201
5964.000000	16.078443
5962.000000	16.110899
5960.000000	16.142983
5958.000000	16.175646
5956.000000	16.206939
5954.000000	16.238050
5952.000000	16.269957
5950.000000	16.301883
5948.000000	16.334202
5946.000000	16.367456
5944.000000	16.399544
5942.000000	16.430677
5940.000000	16.460850
5938.000000	16.491318
5936.000000	16.522157
5934.000000	16.553134
5932.000000	16.585087
5930.000000	16.617532
5928.000000	16.648718
5926.000000	16.680243
5924.000000	16.712044
5922.000000	16.745224
5920.000000	16.778772
5918.000000	16.812779
5916.000000	16.845696
5914.000000	16.879002
5912.000000	16.910923
5910.000000	16.944798
5908.000000	16.979281
5906.000000	17.014718
5904.000000	17.050614
5902.000000	17.085457
5900.000000	17.120885
5898.000000	17.154564
5896.000000	17.186173
5894.000000	17.218294
5892.000000	17.251156
5890.000000	17.285418
5888.000000	17.317247
5886.000000	17.349004
5884.000000	17.382519
5882.000000	17.417683
5880.000000	17.451417
5878.000000	17.483825
5876.000000	17.515774
5874.000000	17.549997
5872.000000	17.585106
5870.000000	17.621195
5868.000000	17.655695
5866.000000	17.690284
5864.000000	17.723988
5862.000000	17.757747
5860.000000	17.791675
5858.000000	17.826070
5856.000000	17.860483
5854.000000	17.894642
5852.000000	17.929417
5850.000000	17.966221
5848.000000	18.003020
5846.000000	18.040671
5844.000000	18.077953
5842.000000	18.116495
5840.000000	18.155830
5838.000000	18.194998
5836.000000	18.233395
5834.000000	18.271296
5832.000000	18.308245
5830.000000	18.347299
5828.000000	18.385616
5826.000000	18.424034
5824.000000	18.462220
5822.000000	18.499836
5820.000000	18.538587
5818.000000	18.576416
5816.000000	18.614757
5814.000000	18.653225
5812.000000	18.690148
5810.000000	18.728438
5808.000000	18.766824
5806.000000	18.805571
5804.000000	18.842111
5802.000000	18.878752
5800.000000	18.916211
5798.000000	18.954348
5796.000000	18.991837
5794.000000	19.029381
5792.000000	19.069366
5790.000000	19.109810
5788.000000	19.147905
5786.000000	19.184577
5784.000000	19.220745
5782.000000	19.259910
5780.000000	19.298800
5778.000000	19.337359
5776.000000	19.375958
5774.000000	19.416371
5772.000000	19.456431
5770.000000	19.495905
5768.000000	19.534180
5766.000000	19.572616
5764.000000	19.610625
5762.000000	19.648627
5760.000000	19.685605
5758.000000	19.722728
5756.000000	19.762531
5754.000000	19.804842
5752.000000	19.845532
5750.000000	19.882458
5748.000000	19.919679
5746.000000	19.959150
5744.000000	19.997854
5742.000000	20.035373
5740.000000	20.073028
5738.000000	20.111766
5736.000000	20.148703
5734.000000	20.185127
5732.000000	20.222645
5730.000000	20.261123
5728.000000	20.299182
5726.000000	20.337837
5724.000000	20.376077
5722.000000	20.414244
5720.000000	20.452641
5718.000000	20.492902
5716.000000	20.533822
5714.000000	20.574574
5712.000000	20.614673
5710.000000	20.655206
5708.000000	20.695319
5706.000000	20.737438
5704.000000	20.779055
5702.000000	20.820426
5700.000000	20.858986
5698.000000	20.898212
5696.000000	20.940350
5694.000000	20.985094
5692.000000	21.029155
5690.000000	21.070950
5688.000000	21.111929
5686.000000	21.154773
5684.000000	21.196942
5682.000000	21.239944
5680.000000	21.282777
5678.000000	21.325264
5676.000000	21.366141
5674.000000	21.406623
5672.000000	21.447930
5670.000000	21.491460
5668.000000	21.534954
5666.000000	21.577722
5664.000000	21.618851
5662.000000	21.661035
5660.000000	21.703889
5658.000000	21.746396
5656.000000	21.788075
5654.000000	21.830625
5652.000000	21.874182
5650.000000	21.917342
5648.000000	21.958933
5646.000000	22.000977
5644.000000	22.043400
5642.000000	22.086705
5640.000000	22.128327
5638.000000	22.169174
5636.000000	22.210176
5634.000000	22.251945
5632.000000	22.293271
5630.000000	22.337051
5628.000000	22.381226
5626.000000	22.425148
5624.000000	22.467045
5622.000000	22.509471
5620.000000	22.551746
5618.000000	22.593760
5616.000000	22.634739
5614.000000	22.677634
5612.000000	22.720728
5610.000000	22.764556
5608.000000	22.807058
5606.000000	22.849716
5604.000000	22.891657
5602.000000	22.934826
5600.000000	22.977632
5598.000000	23.020168
5596.000000	23.061964
5594.000000	23.105063
5592.000000	23.148470
5590.000000	23.191632
5588.000000	23.234684
5586.000000	23.279601
5584.000000	23.325500
5582.000000	23.369794
5580.000000	23.412305
5578.000000	23.455037
5576.000000	23.498097
5574.000000	23.542404
5572.000000	23.587031
5570.000000	23.633163
5568.000000	23.678703
5566.000000	23.723870
5564.000000	23.767311
5562.000000	23.810749
5560.000000	23.855010
5558.000000	23.900748
5556.000000	23.946054
5554.000000	23.990776
5552.000000	24.035826
5550.000000	24.081905
5548.000000	24.126086
5546.000000	24.170055
5544.000000	24.213725
5542.000000	24.257783
5540.000000	24.300681
5538.000000	24.343314
5536.000000	24.386168
5534.000000	24.430628
5532.000000	24.476306
5530.000000	24.522977
5528.000000	24.567400
5526.000000	24.610926
5524.000000	24.654894
5522.000000	24.699593
5520.000000	24.743255
5518.000000	24.786731
5516.000000	24.830252
5514.000000	24.875550
5512.000000	24.919772
5510.000000	24.962080
5508.000000	25.003149
5506.000000	25.046693
5504.000000	25.095197
5502.000000	25.145230
5500.000000	25.192187
5498.000000	25.235282
5496.000000	25.273323
5494.000000	25.311826
5492.000000	25.352649
5490.000000	25.400717
5488.000000	25.452838
5486.000000	25.505312
5484.000000	25.556174
5482.000000	25.603863
5480.000000	25.643808
5478.000000	25.678477
5476.000000	25.717853
5474.000000	25.767798
5472.000000	25.820340
5470.000000	25.868504
5468.000000	25.912659
5466.000000	25.957025
5464.000000	26.000223
5462.000000	26.044345
5460.000000	26.091242
5458.000000	26.143095
5456.000000	26.197212
5454.000000	26.245709
5452.000000	26.285648
5450.000000	26.320520
5448.000000	26.356993
5446.000000	26.400024
5444.000000	26.445937
5442.000000	26.497297
5440.000000	26.548445
5438.000000	26.594040
5436.000000	26.636011
5434.000000	26.677828
5432.000000	26.719769
5430.000000	26.763710
5428.000000	26.814341
5426.000000	26.873705
5424.000000	26.932908
5422.000000	26.987829
5420.000000	27.035095
5418.000000	27.067511
5416.000000	27.089530
5414.000000	27.118178
5412.000000	27.163709
5410.000000	27.224797
5408.000000	27.288683
5406.000000	27.348116
5404.000000	27.398696
5402.000000	27.445700
5400.000000	27.490074
5398.000000	27.528028
5396.000000	27.560157
5394.000000	27.603071
5392.000000	27.659160
5390.000000	27.715751
5388.000000	27.760452
5386.000000	27.805121
5384.000000	27.858170
5382.000000	27.910469
5380.000000	27.949776
5378.000000	27.985616
5376.000000	28.031861
5374.000000	28.093015
5372.000000	28.154974
5370.000000	28.211124
5368.000000	28.259965
5366.000000	28.306441
5364.000000	28.352323
5362.000000	28.401838
5360.000000	28.451277
5358.000000	28.491344
5356.000000	28.520500
5354.000000	28.556045
5352.000000	28.605756
5350.000000	28.658642
5348.000000	28.696359
5346.000000	28.732236
5344.000000	28.778267
5342.000000	28.826427
5340.000000	28.870686
5338.000000	28.922331
5336.000000	28.984565
5334.000000	29.046461
5332.000000	29.097270
5330.000000	29.142201
5328.000000	29.188534
5326.000000	29.242232
5324.000000	29.302577
5322.000000	29.358167
5320.000000	29.405060
5318.000000	29.449825
5316.000000	29.496816
5314.000000	29.546897
5312.000000	29.592727
5310.000000	29.634079
5308.000000	29.678001
5306.000000	29.729327
5304.000000	29.783319
5302.000000	29.833834
5300.000000	29.881715
5298.000000	29.932877
5296.000000	29.982078
5294.000000	30.024579
5292.000000	30.063187
5290.000000	30.109964
5288.000000	30.163705
5286.000000	30.217073
5284.000000	30.267104
5282.000000	30.319158
5280.000000	30.371733
5278.000000	30.425316
5276.000000	30.479388
5274.000000	30.530531
5272.000000	30.574769
5270.000000	30.616365
5268.000000	30.654039
5266.000000	30.688315
5264.000000	30.727813
5262.000000	30.785085
5260.000000	30.850162
5258.000000	30.903278
5256.000000	30.946172
5254.000000	30.994097
5252.000000	31.042228
5250.000000	31.083671
5248.000000	31.123041
5246.000000	31.174428
5244.000000	31.237058
5242.000000	31.301574
5240.000000	31.361379
5238.000000	31.413897
5236.000000	31.460665
5234.000000	31.505327
5232.000000	31.549889
5230.000000	31.593934
5228.000000	31.633482
5226.000000	31.677127
5224.000000	31.731515
5222.000000	31.792844
5220.000000	31.849177
5218.000000	31.902049
5216.000000	31.954637
5214.000000	32.005019
5212.000000	32.046187
5210.000000	32.077576
5208.000000	32.112173
5206.000000	32.166687
5204.000000	32.235666
5202.000000	32.301395
5200.000000	32.353152
5198.000000	32.401364
5196.000000	32.453026
5194.000000	32.508135
5192.000000	32.560328
5190.000000	32.609392
5188.000000	32.656547
5186.000000	32.706469
5184.000000	32.759210
5182.000000	32.815276
5180.000000	32.870170
5178.000000	32.924396
5176.000000	32.976938
5174.000000	33.028073
5172.000000	33.077686
5170.000000	33.129750
5168.000000	33.182680
5166.000000	33.235076
5164.000000	33.286003
5162.000000	33.338778
5160.000000	33.390722
5158.000000	33.441312
5156.000000	33.493117
5154.000000	33.547718
5152.000000	33.600677
5150.000000	33.652344
5148.000000	33.703971
5146.000000	33.756493
5144.000000	33.807477
5142.000000	33.859418
5140.000000	33.911063
5138.000000	33.962609
5136.000000	34.014179
5134.000000	34.068112
5132.000000	34.121953
5130.000000	34.175073
5128.000000	34.225885
5126.000000	34.275870
5124.000000	34.325388
5122.000000	34.376051
5120.000000	34.427169
5118.000000	34.479954
5116.000000	34.533087
5114.000000	34.585669
5112.000000	34.637275
5110.000000	34.690230
5108.000000	34.743503
5106.000000	34.797013
5104.000000	34.849302
5102.000000	34.902411
5100.000000	34.955572
5098.000000	35.009194
5096.000000	35.062352
5094.000000	35.116483
5092.000000	35.171541
5090.000000	35.227433
5088.000000	35.282695
5086.000000	35.336204
5084.000000	35.388973
5082.000000	35.443463
5080.000000	35.497859
5078.000000	35.552290
5076.000000	35.606510
5074.000000	35.661173
5072.000000	35.715289
5070.000000	35.770556
5068.000000	35.825089
5066.000000	35.879905
5064.000000	35.935034
5062.000000	35.990150
5060.000000	36.043308
5058.000000	36.096108
5056.000000	36.148307
5054.000000	36.201094
5052.000000	36.254638
5050.000000	36.309556
5048.000000	36.364087
5046.000000	36.417907
5044.000000	36.469998
5042.000000	36.522689
5040.000000	36.577605
5038.000000	36.633122
5036.000000	36.686659
5034.000000	36.738693
5032.000000	36.790842
5030.000000	36.845502
5028.000000	36.900893
5026.000000	36.954897
5024.000000	37.005701
5022.000000	37.058585
5020.000000	37.114981
5018.000000	37.172065
5016.000000	37.226118
5014.000000	37.278480
5012.000000	37.331515
5010.000000	37.386784
5008.000000	37.443787
5006.000000	37.503488
5004.000000	37.558786
5002.000000	37.611078
5000.000000	37.663107
4998.000000	37.720056
4996.000000	37.776480
4994.000000	37.832922
4992.000000	37.889589
4990.000000	37.944466
4988.000000	37.997713
4986.000000	38.053493
4984.000000	38.111054
4982.000000	38.168361
4980.000000	38.225162
4978.000000	38.283060
4976.000000	38.339005
4974.000000	38.394334
4972.000000	38.449087
4970.000000	38.505196
4968.000000	38.560624
4966.000000	38.617155
4964.000000	38.673386
4962.000000	38.728918
4960.000000	38.782548
4958.000000	38.837030
4956.000000	38.892510
4954.000000	38.947835
4952.000000	39.001741
4950.000000	39.056425
4948.000000	39.111029
4946.000000	39.166290
4944.000000	39.221645
4942.000000	39.277808
4940.000000	39.332133
4938.000000	39.386698
4936.000000	39.441693
4934.000000	39.497113
4932.000000	39.551439
4930.000000	39.606083
4928.000000	39.660329
4926.000000	39.715598
4924.000000	39.771589
4922.000000	39.828361
4920.000000	39.883936
4918.000000	39.939670
4916.000000	39.995739
4914.000000	40.052038
4912.000000	40.107391
4910.000000	40.163275
4908.000000	40.219168
4906.000000	40.275021
4904.000000	40.331336
4902.000000	40.388672
4900.000000	40.444535
4898.000000	40.500437
4896.000000	40.556912
4894.000000	40.614643
4892.000000	40.672273
4890.000000	40.730438
4888.000000	40.788363
4886.000000	40.846219
4884.000000	40.903107
4882.000000	40.959720
4880.000000	41.016970
4878.000000	41.075855
4876.000000	41.133347
4874.000000	41.190267
4872.000000	41.247335
4870.000000	41.306140
4868.000000	41.362109
4866.000000	41.417470
4864.000000	41.474044
4862.000000	41.532212
4860.000000	41.587646
4858.000000	41.643148
4856.000000	41.700022
4854.000000	41.757952
4852.000000	41.814963
4850.000000	41.872549
4848.000000	41.928689
4846.000000	41.983522
4844.000000	42.038546
4842.000000	42.094842
4840.000000	42.150105
4838.000000	42.205879
4836.000000	42.262578
4834.000000	42.320003
4832.000000	42.376245
4830.000000	42.432554
4828.000000	42.486840
4826.000000	42.541686
4824.000000	42.598063
4822.000000	42.656856
4820.000000	42.714399
4818.000000	42.771415
4816.000000	42.827657
4814.000000	42.885483
4812.000000	42.942622
4810.000000	42.999810
4808.000000	43.056513
4806.000000	43.115162
4804.000000	43.174850
4802.000000	43.235084
4800.000000	43.293186
4798.000000	43.351146
4796.000000	43.410088
4794.000000	43.471016
4792.000000	43.531573
4790.000000	43.590856
4788.000000	43.647722
4786.000000	43.705622
4784.000000	43.764067
4782.000000	43.822991
4780.000000	43.881839
4778.000000	43.941446
4776.000000	43.998816
4774.000000	44.056420
4772.000000	44.113431
4770.000000	44.171274
4768.000000	44.229007
4766.000000	44.287463
4764.000000	44.342683
4762.000000	44.398035
4760.000000	44.455140
4758.000000	44.512268
4756.000000	44.566961
4754.000000	44.624190
4752.000000	44.683684
4750.000000	44.742220
4748.000000	44.798493
4746.000000	44.855785
4744.000000	44.912257
4742.000000	44.968202
4740.000000	45.023927
4738.000000	45.081240
4736.000000	45.137568
4734.000000	45.194602
4732.000000	45.251069
4730.000000	45.308626
4728.000000	45.365859
4726.000000	45.424339
4724.000000	45.482100
4722.000000	45.540886
4720.000000	45.599157
4718.000000	45.657973
4716.000000	45.716788
4714.000000	45.777071
4712.000000	45.838012
4710.000000	45.899723
4708.000000	45.960827
4706.000000	46.022541
4704.000000	46.083459
4702.000000	46.145280
4700.000000	46.208626
4698.000000	46.272025
4696.000000	46.332228
4694.000000	46.392137
4692.000000	46.452491
4690.000000	46.512758
4688.000000	46.571639
4686.000000	46.631793
4684.000000	46.691539
4682.000000	46.751288
4680.000000	46.810329
4678.000000	46.871799
4676.000000	46.933287
4674.000000	46.993929
4672.000000	47.052839
4670.000000	47.112653
4668.000000	47.172256
4666.000000	47.232400
4664.000000	47.291438
4662.000000	47.351216
4660.000000	47.410664
4658.000000	47.469911
4656.000000	47.528383
4654.000000	47.588371
4652.000000	47.647676
4650.000000	47.707185
4648.000000	47.767173
4646.000000	47.828241
4644.000000	47.888130
4642.000000	47.948572
4640.000000	48.009295
4638.000000	48.069707
4636.000000	48.128883
4634.000000	48.189519
4632.000000	48.249335
4630.000000	48.309118
4628.000000	48.369067
4626.000000	48.429927
4624.000000	48.489752
4622.000000	48.548828
4620.000000	48.608170
4618.000000	48.670577
4616.000000	48.732966
4614.000000	48.794976
4612.000000	48.856981
4610.000000	48.919288
4608.000000	48.981301
4606.000000	49.045397
4604.000000	49.109875
4602.000000	49.173739
4600.000000	49.236130
4598.000000	49.299765
4596.000000	49.364865
4594.000000	49.430768
4592.000000	49.495244
4590.000000	49.559376
4588.000000	49.622142
4586.000000	49.684458
4584.000000	49.745769
4582.000000	49.808113
4580.000000	49.870500
4578.000000	49.933271
4576.000000	49.995264
4574.000000	50.058752
4572.000000	50.122970
4570.000000	50.187726
4568.000000	50.250704
4566.000000	50.313640
4564.000000	50.376226
4562.000000	50.438755
4560.000000	50.498714
4558.000000	50.558965
4556.000000	50.620197
4554.000000	50.682405
4552.000000	50.742339
4550.000000	50.803470
4548.000000	50.865696
4546.000000	50.926090
4544.000000	50.983868
4542.000000	51.046323
4540.000000	51.110620
4538.000000	51.171562
4536.000000	51.230628
4534.000000	51.294007
4532.000000	51.359487
4530.000000	51.422895
4528.000000	51.483009
4526.000000	51.544932
4524.000000	51.607856
4522.000000	51.669196
4520.000000	51.728915
4518.000000	51.791356
4516.000000	51.856496
4514.000000	51.923564
4512.000000	51.989519
4510.000000	52.054324
4508.000000	52.117415
4506.000000	52.180597
4504.000000	52.243494
4502.000000	52.308183
4500.000000	52.373875
4498.000000	52.440338
4496.000000	52.504878
4494.000000	52.567964
4492.000000	52.630551
4490.000000	52.695485
4488.000000	52.760712
4486.000000	52.826658
4484.000000	52.891423
4482.000000	52.954748
4480.000000	53.017218
4478.000000	53.080372
4476.000000	53.141828
4474.000000	53.202793
4472.000000	53.263631
4470.000000	53.325775
4468.000000	53.388473
4466.000000	53.451919
4464.000000	53.513504
4462.000000	53.574646
4460.000000	53.635557
4458.000000	53.696730
4456.000000	53.757923
4454.000000	53.820665
4452.000000	53.881476
4450.000000	53.940916
4448.000000	54.001897
4446.000000	54.065541
4444.000000	54.128450
4442.000000	54.191686
4440.000000	54.253529
4438.000000	54.313250
4436.000000	54.371564
4434.000000	54.433278
4432.000000	54.497132
4430.000000	54.562074
4428.000000	54.624852
4426.000000	54.686792
4424.000000	54.747264
4422.000000	54.808273
4420.000000	54.870561
4418.000000	54.935381
4416.000000	54.998952
4414.000000	55.063390
4412.000000	55.128773
4410.000000	55.193412
4408.000000	55.255677
4406.000000	55.319122
4404.000000	55.383333
4402.000000	55.447388
4400.000000	55.510051
4398.000000	55.574301
4396.000000	55.639166
4394.000000	55.702252
4392.000000	55.762965
4390.000000	55.824881
4388.000000	55.887497
4386.000000	55.950145
4384.000000	56.010862
4382.000000	56.070323
4380.000000	56.127452
4378.000000	56.185835
4376.000000	56.246070
4374.000000	56.307610
4372.000000	56.368241
4370.000000	56.428158
4368.000000	56.485188
4366.000000	56.543685
4364.000000	56.603577
4362.000000	56.664497
4360.000000	56.725684
4358.000000	56.786937
4356.000000	56.846682
4354.000000	56.907533
4352.000000	56.968616
4350.000000	57.031590
4348.000000	57.096531
4346.000000	57.161874
4344.000000	57.224370
4342.000000	57.286726
4340.000000	57.348918
4338.000000	57.411083
4336.000000	57.472969
4334.000000	57.535455
4332.000000	57.596941
4330.000000	57.660301
4328.000000	57.724996
4326.000000	57.790270
4324.000000	57.854501
4322.000000	57.920196
4320.000000	57.985191
4318.000000	58.050229
4316.000000	58.118462
4314.000000	58.190024
4312.000000	58.257026
4310.000000	58.321114
4308.000000	58.386317
4306.000000	58.454063
4304.000000	58.520689
4302.000000	58.586550
4300.000000	58.651772
4298.000000	58.716916
4296.000000	58.781535
4294.000000	58.847341
4292.000000	58.910992
4290.000000	58.973267
4288.000000	59.034637
4286.000000	59.095285
4284.000000	59.154868
4282.000000	59.215381
4280.000000	59.275331
4278.000000	59.336210
4276.000000	59.395953
4274.000000	59.453840
4272.000000	59.510198
4270.000000	59.568837
4268.000000	59.628873
4266.000000	59.689804
4264.000000	59.749981
4262.000000	59.811001
4260.000000	59.872286
4258.000000	59.936213
4256.000000	60.001976
4254.000000	60.065665
4252.000000	60.125326
4250.000000	60.187894
4248.000000	60.253250
4246.000000	60.317390
4244.000000	60.378253
4242.000000	60.439849
4240.000000	60.503022
4238.000000	60.567336
4236.000000	60.631228
4234.000000	60.695795
4232.000000	60.759950
4230.000000	60.824219
4228.000000	60.887751
4226.000000	60.952288
4224.000000	61.015939
4222.000000	61.078897
4220.000000	61.142371
4218.000000	61.207102
4216.000000	61.271170
4214.000000	61.335740
4212.000000	61.400554
4210.000000	61.466427
4208.000000	61.531716
4206.000000	61.597209
4204.000000	61.662061
4202.000000	61.728005
4200.000000	61.795506
4198.000000	61.864328
4196.000000	61.932650
4194.000000	62.002240
4192.000000	62.071208
4190.000000	62.138924
4188.000000	62.205423
4186.000000	62.272966
4184.000000	62.339774
4182.000000	62.405286
4180.000000	62.468395
4178.000000	62.532669
4176.000000	62.597898
4174.000000	62.662185
4172.000000	62.725612
4170.000000	62.790526
4168.000000	62.854997
4166.000000	62.918810
4164.000000	62.980402
4162.000000	63.042889
4160.000000	63.107153
4158.000000	63.171665
4156.000000	63.234632
4154.000000	63.298366
4152.000000	63.362544
4150.000000	63.427551
4148.000000	63.492731
4146.000000	63.558345
4144.000000	63.622855
4142.000000	63.687208
4140.000000	63.751885
4138.000000	63.818263
4136.000000	63.882536
4134.000000	63.946333
4132.000000	64.013093
4130.000000	64.081830
4128.000000	64.147801
4126.000000	64.210980
4124.000000	64.273020
4122.000000	64.338251
4120.000000	64.404456
4118.000000	64.470471
4116.000000	64.537267
4114.000000	64.605851
4112.000000	64.671659
4110.000000	64.734893
4108.000000	64.797090
4106.000000	64.860781
4104.000000	64.925212
4102.000000	64.990509
4100.000000	65.055826
4098.000000	65.121411
4096.000000	65.184400
4094.000000	65.246211
4092.000000	65.308707
4090.000000	65.374877
4088.000000	65.442764
4086.000000	65.513236
4084.000000	65.584199
4082.000000	65.651890
4080.000000	65.717018
4078.000000	65.783866
4076.000000	65.849946
4074.000000	65.916237
4072.000000	65.982242
4070.000000	66.047172
4068.000000	66.110310
4066.000000	66.173640
4064.000000	66.237382
4062.000000	66.302465
4060.000000	66.365850
4058.000000	66.430508
4056.000000	66.498386
4054.000000	66.565359
4052.000000	66.627570
4050.000000	66.689360
4048.000000	66.750205
4046.000000	66.810965
4044.000000	66.875052
4042.000000	66.943472
4040.000000	67.011919
4038.000000	67.080071
4036.000000	67.147849
4034.000000	67.216101
4032.000000	67.284126
4030.000000	67.352234
4028.000000	67.415964
4026.000000	67.478931
4024.000000	67.547332
4022.000000	67.616210
4020.000000	67.680494
4018.000000	67.748479
4016.000000	67.819612
4014.000000	67.889111
4012.000000	67.955171
4010.000000	68.019844
4008.000000	68.085130
4006.000000	68.153352
4004.000000	68.226301
4002.000000	68.299421
4000.000000	68.365905
3998.000000	68.429179
3996.000000	68.491537
3994.000000	68.555878
3992.000000	68.619885
3990.000000	68.685234
3988.000000	68.752942
3986.000000	68.818208
3984.000000	68.879471
3982.000000	68.942025
3980.000000	69.005626
3978.000000	69.064105
3976.000000	69.117166
3974.000000	69.174916
3972.000000	69.239922
3970.000000	69.308622
3968.000000	69.376251
3966.000000	69.437798
3964.000000	69.488444
3962.000000	69.541517
3960.000000	69.606400
3958.000000	69.673149
3956.000000	69.734530
3954.000000	69.786551
3952.000000	69.818631
3950.000000	69.848696
3948.000000	69.907679
3946.000000	69.973499
3944.000000	70.020117
3942.000000	70.094628
3940.000000	70.204562
3938.000000	70.294685
3936.000000	70.325354
3934.000000	70.312470
3932.000000	70.341695
3930.000000	70.449577
3928.000000	70.545548
3926.000000	70.590160
3924.000000	70.644582
3922.000000	70.697739
3920.000000	70.700262
3918.000000	70.726794
3916.000000	70.864229
3914.000000	71.045910
3912.000000	71.169519
3910.000000	71.220719
3908.000000	71.149637
3906.000000	70.930248
3904.000000	70.743544
3902.000000	70.757453
3900.000000	70.963704
3898.000000	71.284614
3896.000000	71.518133
3894.000000	71.492053
3892.000000	71.407790
3890.000000	71.480335
3888.000000	71.473184
3886.000000	71.407501
3884.000000	71.542286
3882.000000	71.697055
3880.000000	71.827220
3878.000000	71.999336
3876.000000	72.040738
3874.000000	71.923634
3872.000000	71.691763
3870.000000	71.608914
3868.000000	71.816514
3866.000000	71.986185
3864.000000	72.104697
3862.000000	72.335381
3860.000000	72.526382
3858.000000	72.270485
3856.000000	71.349910
3854.000000	70.706315
3852.000000	71.279624
3850.000000	72.361898
3848.000000	72.960449
3846.000000	73.045169
3844.000000	72.943851
3842.000000	72.744888
3840.000000	72.367007
3838.000000	72.181716
3836.000000	72.515988
3834.000000	72.962543
3832.000000	73.234376
3830.000000	73.437456
3828.000000	73.565719
3826.000000	73.583980
3824.000000	73.374668
3822.000000	73.112458
3820.000000	73.122282
3818.000000	73.108269
3816.000000	73.172689
3814.000000	73.682052
3812.000000	74.132355
3810.000000	74.066948
3808.000000	73.789670
3806.000000	73.761680
3804.000000	73.679235
3802.000000	73.495107
3800.000000	73.770365
3798.000000	74.231795
3796.000000	74.511070
3794.000000	74.735527
3792.000000	74.894828
3790.000000	74.968803
3788.000000	74.994853
3786.000000	75.009183
3784.000000	75.041469
3782.000000	75.033420
3780.000000	75.020065
3778.000000	75.142293
3776.000000	75.317210
3774.000000	75.359664
3772.000000	75.231867
3770.000000	75.144189
3768.000000	75.229843
3766.000000	75.378366
3764.000000	75.512967
3762.000000	75.527066
3760.000000	75.466886
3758.000000	75.511628
3756.000000	75.428105
3754.000000	74.879282
3752.000000	74.275757
3750.000000	74.288797
3748.000000	74.533087
3746.000000	74.337921
3744.000000	74.492717
3742.000000	75.355949
3740.000000	75.819705
3738.000000	75.594828
3736.000000	75.367380
3734.000000	75.467804
3732.000000	75.816099
3730.000000	76.232608
3728.000000	76.423981
3726.000000	76.453306
3724.000000	76.522499
3722.000000	76.643253
3720.000000	76.800106
3718.000000	76.935829
3716.000000	76.880793
3714.000000	76.536348
3712.000000	76.303018
3710.000000	76.540063
3708.000000	76.984276
3706.000000	77.253904
3704.000000	77.259091
3702.000000	77.235407
3700.000000	77.378282
3698.000000	77.547845
3696.000000	77.602698
3694.000000	77.478332
3692.000000	77.086738
3690.000000	76.642726
3688.000000	76.755944
3686.000000	77.391560
3684.000000	77.832648
3682.000000	77.888621
3680.000000	77.670958
3678.000000	77.123605
3676.000000	76.719362
3674.000000	76.873529
3672.000000	76.994058
3670.000000	77.117023
3668.000000	77.646826
3666.000000	78.147775
3664.000000	78.340467
3662.000000	78.376537
3660.000000	78.285885
3658.000000	78.046219
3656.000000	77.955352
3654.000000	77.975790
3652.000000	77.617432
3650.000000	77.195647
3648.000000	77.389633
3646.000000	77.994269
3644.000000	78.424744
3642.000000	78.574731
3640.000000	78.616357
3638.000000	78.622251
3636.000000	78.584985
3634.000000	78.473133
3632.000000	78.092771
3630.000000	77.602595
3628.000000	77.722273
3626.000000	78.310293
3624.000000	78.604340
3622.000000	78.449346
3620.000000	78.215720
3618.000000	78.258424
3616.000000	78.398736
3614.000000	78.387470
3612.000000	78.302321
3610.000000	78.242942
3608.000000	78.352380
3606.000000	78.601737
3604.000000	78.742608
3602.000000	78.733453
3600.000000	78.700871
3598.000000	78.673585
3596.000000	78.638678
3594.000000	78.652412
3592.000000	78.640063
3590.000000	78.462102
3588.000000	78.316450
3586.000000	78.444089
3584.000000	78.668472
3582.000000	78.771800
3580.000000	78.784356
3578.000000	78.784183
3576.000000	78.785425
3574.000000	78.786300
3572.000000	78.734071
3570.000000	78.544131
3568.000000	78.351088
3566.000000	78.394977
3564.000000	78.578607
3562.000000	78.687457
3560.000000	78.722629
3558.000000	78.743377
3556.000000	78.734966
3554.000000	78.691722
3552.000000	78.668607
3550.000000	78.658002
3548.000000	78.598991
3546.000000	78.555214
3544.000000	78.595292
3542.000000	78.660768
3540.000000	78.680887
3538.000000	78.654187
3536.000000	78.631270
3534.000000	78.626796
3532.000000	78.594945
3530.000000	78.530472
3528.000000	78.473776
3526.000000	78.434677
3524.000000	78.404132
3522.000000	78.397513
3520.000000	78.398017
3518.000000	78.383209
3516.000000	78.357823
3514.000000	78.317686
3512.000000	78.259650
3510.000000	78.204344
3508.000000	78.167960
3506.000000	78.112065
3504.000000	78.033736
3502.000000	77.991687
3500.000000	77.975509
3498.000000	77.936534
3496.000000	77.886449
3494.000000	77.844975
3492.000000	77.798205
3490.000000	77.740485
3488.000000	77.688951
3486.000000	77.651960
3484.000000	77.609882
3482.000000	77.571070
3480.000000	77.562233
3478.000000	77.570468
3476.000000	77.575125
3474.000000	77.581047
3472.000000	77.592165
3470.000000	77.597746
3468.000000	77.608679
3466.000000	77.642487
3464.000000	77.683878
3462.000000	77.721929
3460.000000	77.763237
3458.000000	77.805433
3456.000000	77.843135
3454.000000	77.874575
3452.000000	77.896429
3450.000000	77.899556
3448.000000	77.894977
3446.000000	77.921224
3444.000000	77.976051
3442.000000	78.041339
3440.000000	78.118981
3438.000000	78.204595
3436.000000	78.303111
3434.000000	78.424671
3432.000000	78.561941
3430.000000	78.702953
3428.000000	78.846110
3426.000000	78.982318
3424.000000	79.099104
3422.000000	79.200938
3420.000000	79.310008
3418.000000	79.426758
3416.000000	79.529268
3414.000000	79.610987
3412.000000	79.681571
3410.000000	79.747882
3408.000000	79.811393
3406.000000	79.870251
3404.000000	79.920863
3402.000000	79.964432
3400.000000	80.018871
3398.000000	80.096572
3396.000000	80.180213
3394.000000	80.248537
3392.000000	80.313595
3390.000000	80.395373
3388.000000	80.476500
3386.000000	80.540791
3384.000000	80.601610
3382.000000	80.664481
3380.000000	80.721970
3378.000000	80.772602
3376.000000	80.822938
3374.000000	80.872736
3372.000000	80.912019
3370.000000	80.941448
3368.000000	80.980796
3366.000000	81.034837
3364.000000	81.090605
3362.000000	81.140947
3360.000000	81.187048
3358.000000	81.231892
3356.000000	81.277866
3354.000000	81.324138
3352.000000	81.364535
3350.000000	81.404690
3348.000000	81.453080
3346.000000	81.501540
3344.000000	81.544548
3342.000000	81.585901
3340.000000	81.624740
3338.000000	81.661657
3336.000000	81.706792
3334.000000	81.755671
3332.000000	81.801271
3330.000000	81.841746
3328.000000	81.877125
3326.000000	81.912653
3324.000000	81.954179
3322.000000	81.997889
3320.000000	82.040195
3318.000000	82.080287
3316.000000	82.115927
3314.000000	82.148952
3312.000000	82.181669
3310.000000	82.209111
3308.000000	82.233618
3306.000000	82.263628
3304.000000	82.309886
3302.000000	82.364972
3300.000000	82.411287
3298.000000	82.449494
3296.000000	82.483072
3294.000000	82.512725
3292.000000	82.547593
3290.000000	82.593678
3288.000000	82.641244
3286.000000	82.682028
3284.000000	82.723103
3282.000000	82.766024
3280.000000	82.804185
3278.000000	82.835783
3276.000000	82.868988
3274.000000	82.906152
3272.000000	82.946021
3270.000000	82.992680
3268.000000	83.046156
3266.000000	83.097396
3264.000000	83.145184
3262.000000	83.190955
3260.000000	83.235474
3258.000000	83.277414
3256.000000	83.320870
3254.000000	83.372601
3252.000000	83.427078
3250.000000	83.475548
3248.000000	83.517304
3246.000000	83.560069
3244.000000	83.615364
3242.000000	83.674470
3240.000000	83.728443
3238.000000	83.778700
3236.000000	83.824798
3234.000000	83.868167
3232.000000	83.921298
3230.000000	83.980844
3228.000000	84.038741
3226.000000	84.093350
3224.000000	84.143687
3222.000000	84.191090
3220.000000	84.238029
3218.000000	84.287508
3216.000000	84.337512
3214.000000	84.389225
3212.000000	84.443945
3210.000000	84.498071
3208.000000	84.558182
3206.000000	84.623710
3204.000000	84.692799
3202.000000	84.763509
3200.000000	84.831357
3198.000000	84.900708
3196.000000	84.980179
3194.000000	85.059498
3192.000000	85.132381
3190.000000	85.203585
3188.000000	85.274851
3186.000000	85.344586
3184.000000	85.418103
3182.000000	85.491896
3180.000000	85.561329
3178.000000	85.631996
3176.000000	85.709745
3174.000000	85.788181
3172.000000	85.863597
3170.000000	85.937059
3168.000000	86.011748
3166.000000	86.088718
3164.000000	86.166634
3162.000000	86.244732
3160.000000	86.323664
3158.000000	86.402898
3156.000000	86.482380
3154.000000	86.554763
3152.000000	86.628966
3150.000000	86.714175
3148.000000	86.799402
3146.000000	86.879267
3144.000000	86.957565
3142.000000	87.030183
3140.000000	87.100520
3138.000000	87.173757
3136.000000	87.246136
3134.000000	87.313905
3132.000000	87.383739
3130.000000	87.452919
3128.000000	87.520349
3126.000000	87.583702
3124.000000	87.639714
3122.000000	87.689735
3120.000000	87.738748
3118.000000	87.790348
3116.000000	87.849845
3114.000000	87.916842
3112.000000	87.982555
3110.000000	88.037519
3108.000000	88.091160
3106.000000	88.151226
3104.000000	88.211289
3102.000000	88.270670
3100.000000	88.336721
3098.000000	88.406090
3096.000000	88.474518
3094.000000	88.543247
3092.000000	88.607527
3090.000000	88.666982
3088.000000	88.726604
3086.000000	88.780638
3084.000000	88.829254
3082.000000	88.873157
3080.000000	88.912087
3078.000000	88.955446
3076.000000	89.003431
3074.000000	89.038863
3072.000000	89.060315
3070.000000	89.071033
3068.000000	89.076930
3066.000000	89.094692
3064.000000	89.135891
3062.000000	89.190188
3060.000000	89.247459
3058.000000	89.304478
3056.000000	89.366288
3054.000000	89.432661
3052.000000	89.493660
3050.000000	89.547394
3048.000000	89.600718
3046.000000	89.645321
3044.000000	89.677520
3042.000000	89.706462
3040.000000	89.738101
3038.000000	89.762653
3036.000000	89.773930
3034.000000	89.773348
3032.000000	89.762458
3030.000000	89.735803
3028.000000	89.676386
3026.000000	89.575565
3024.000000	89.453933
3022.000000	89.343703
3020.000000	89.282859
3018.000000	89.308485
3016.000000	89.445330
3014.000000	89.677567
3012.000000	89.961496
3010.000000	90.240861
3008.000000	90.470366
3006.000000	90.628327
3004.000000	90.732975
3002.000000	90.816822
3000.000000	90.884341
2998.000000	90.928774
2996.000000	90.960960
2994.000000	90.982500
2992.000000	90.996446
2990.000000	91.002331
2988.000000	90.994385
2986.000000	90.964880
2984.000000	90.909562
2982.000000	90.824805
2980.000000	90.708201
2978.000000	90.550982
2976.000000	90.334257
2974.000000	90.036967
2972.000000	89.651188
2970.000000	89.182200
2968.000000	88.672041
2966.000000	88.197421
2964.000000	87.847492
2962.000000	87.680822
2960.000000	87.698279
2958.000000	87.841690
2956.000000	88.034115
2954.000000	88.216901
2952.000000	88.362556
2950.000000	88.439553
2948.000000	88.409143
2946.000000	88.250886
2944.000000	87.965943
2942.000000	87.567781
2940.000000	87.089922
2938.000000	86.589672
2936.000000	86.128049
2934.000000	85.717036
2932.000000	85.327568
2930.000000	84.945284
2928.000000	84.624394
2926.000000	84.464504
2924.000000	84.569566
2922.000000	84.981348
2920.000000	85.646847
2918.000000	86.452741
2916.000000	87.292986
2914.000000	88.082959
2912.000000	88.765761
2910.000000	89.314175
2908.000000	89.740639
2906.000000	90.084114
2904.000000	90.383115
2902.000000	90.655104
2900.000000	90.910436
2898.000000	91.150108
2896.000000	91.375600
2894.000000	91.588605
2892.000000	91.791757
2890.000000	91.977382
2888.000000	92.139425
2886.000000	92.269172
2884.000000	92.359654
2882.000000	92.405883
2880.000000	92.408410
2878.000000	92.358150
2876.000000	92.250719
2874.000000	92.079193
2872.000000	91.833979
2870.000000	91.486697
2868.000000	91.014264
2866.000000	90.451185
2864.000000	89.920156
2862.000000	89.573776
2860.000000	89.500215
2858.000000	89.665835
2856.000000	89.965819
2854.000000	90.318091
2852.000000	90.723686
2850.000000	91.224415
2848.000000	91.822322
2846.000000	92.435474
2844.000000	92.971965
2842.000000	93.400917
2840.000000	93.737467
2838.000000	94.005236
2836.000000	94.227025
2834.000000	94.411179
2832.000000	94.566696
2830.000000	94.700461
2828.000000	94.822331
2826.000000	94.934098
2824.000000	95.037009
2822.000000	95.131372
2820.000000	95.221516
2818.000000	95.303365
2816.000000	95.374479
2814.000000	95.438481
2812.000000	95.499018
2810.000000	95.552135
2808.000000	95.605067
2806.000000	95.653469
2804.000000	95.699373
2802.000000	95.744825
2800.000000	95.790679
2798.000000	95.833957
2796.000000	95.876612
2794.000000	95.920542
2792.000000	95.968950
2790.000000	96.025751
2788.000000	96.098593
2786.000000	96.183418
2784.000000	96.270450
2782.000000	96.350495
2780.000000	96.426766
2778.000000	96.494643
2776.000000	96.555446
2774.000000	96.613871
2772.000000	96.672475
2770.000000	96.727354
2768.000000	96.780556
2766.000000	96.830150
2764.000000	96.878689
2762.000000	96.926774
2760.000000	96.973873
2758.000000	97.018090
2756.000000	97.063972
2754.000000	97.109090
2752.000000	97.150413
2750.000000	97.188419
2748.000000	97.226511
2746.000000	97.264121
2744.000000	97.302497
2742.000000	97.337246
2740.000000	97.373201
2738.000000	97.411069
2736.000000	97.448407
2734.000000	97.482181
2732.000000	97.518091
2730.000000	97.553570
2728.000000	97.588573
2726.000000	97.621253
2724.000000	97.655009
2722.000000	97.686906
2720.000000	97.720454
2718.000000	97.753354
2716.000000	97.784167
2714.000000	97.813612
2712.000000	97.843701
2710.000000	97.868186
2708.000000	97.891901
2706.000000	97.918201
2704.000000	97.951028
2702.000000	97.987758
2700.000000	98.032052
2698.000000	98.082028
2696.000000	98.133573
2694.000000	98.178715
2692.000000	98.223328
2690.000000	98.265669
2688.000000	98.306379
2686.000000	98.344940
2684.000000	98.384442
2682.000000	98.424645
2680.000000	98.464711
2678.000000	98.499794
2676.000000	98.532397
2674.000000	98.563567
2672.000000	98.597849
2670.000000	98.630769
2668.000000	98.661253
2666.000000	98.691175
2664.000000	98.723328
2662.000000	98.754040
2660.000000	98.784641
2658.000000	98.814072
2656.000000	98.847983
2654.000000	98.884900
2652.000000	98.924428
2650.000000	98.964524
2648.000000	99.007430
2646.000000	99.049745
2644.000000	99.089004
2642.000000	99.124862
2640.000000	99.161564
2638.000000	99.196092
2636.000000	99.230740
2634.000000	99.265103
2632.000000	99.300625
2630.000000	99.332612
2628.000000	99.364158
2626.000000	99.392679
2624.000000	99.420479
2622.000000	99.448923
2620.000000	99.480321
2618.000000	99.508306
2616.000000	99.533998
2614.000000	99.558041
2612.000000	99.583883
2610.000000	99.608474
2608.000000	99.631004
2606.000000	99.647998
2604.000000	99.662369
2602.000000	99.676480
2600.000000	99.691493
2598.000000	99.702310
2596.000000	99.712887
2594.000000	99.727175
2592.000000	99.751044
2590.000000	99.784827
2588.000000	99.830053
2586.000000	99.880763
2584.000000	99.942224
2582.000000	100.006304
2580.000000	100.067911
2578.000000	100.124197
2576.000000	100.180322
2574.000000	100.231266
2572.000000	100.273865
2570.000000	100.311839
2568.000000	100.350832
2566.000000	100.386597
2564.000000	100.420674
2562.000000	100.452240
2560.000000	100.484683
2558.000000	100.513476
2556.000000	100.541025
2554.000000	100.567013
2552.000000	100.593566
2550.000000	100.620697
2548.000000	100.650644
2546.000000	100.677483
2544.000000	100.704832
2542.000000	100.731936
2540.000000	100.761064
2538.000000	100.787955
2536.000000	100.816122
2534.000000	100.842057
2532.000000	100.870272
2530.000000	100.897600
2528.000000	100.922595
2526.000000	100.946771
2524.000000	100.973382
2522.000000	100.997078
2520.000000	101.022287
2518.000000	101.048242
2516.000000	101.074976
2514.000000	101.099207
2512.000000	101.123474
2510.000000	101.144092
2508.000000	101.166423
2506.000000	101.189195
2504.000000	101.212910
2502.000000	101.235067
2500.000000	101.258962
2498.000000	101.282240
2496.000000	101.308855
2494.000000	101.337825
2492.000000	101.367099
2490.000000	101.393108
2488.000000	101.418963
2486.000000	101.445083
2484.000000	101.474882
2482.000000	101.502331
2480.000000	101.530264
2478.000000	101.555504
2476.000000	101.577756
2474.000000	101.597473
2472.000000	101.618889
2470.000000	101.638330
2468.000000	101.657368
2466.000000	101.673453
2464.000000	101.691279
2462.000000	101.707926
2460.000000	101.726956
2458.000000	101.744749
2456.000000	101.763699
2454.000000	101.780801
2452.000000	101.797516
2450.000000	101.815679
2448.000000	101.836773
2446.000000	101.853592
2444.000000	101.870635
2442.000000	101.885791
2440.000000	101.902075
2438.000000	101.917183
2436.000000	101.933285
2434.000000	101.948461
2432.000000	101.965827
2430.000000	101.977924
2428.000000	101.988242
2426.000000	102.000755
2424.000000	102.019586
2422.000000	102.039473
2420.000000	102.056671
2418.000000	102.068585
2416.000000	102.081465
2414.000000	102.092555
2412.000000	102.107286
2410.000000	102.121819
2408.000000	102.135600
2406.000000	102.147370
2404.000000	102.164024
2402.000000	102.180310
2400.000000	102.199441
2398.000000	102.216532
2396.000000	102.236844
2394.000000	102.255039
2392.000000	102.272436
2390.000000	102.287446
2388.000000	102.301090
2386.000000	102.304734
2384.000000	102.292144
2382.000000	102.247850
2380.000000	102.163336
2378.000000	102.028152
2376.000000	101.835030
2374.000000	101.583065
2372.000000	101.291426
2370.000000	100.981144
2368.000000	100.686953
2366.000000	100.438933
2364.000000	100.274762
2362.000000	100.218552
2360.000000	100.286733
2358.000000	100.474602
2356.000000	100.777662
2354.000000	101.176315
2352.000000	101.620472
2350.000000	101.940222
2348.000000	101.924106
2346.000000	101.637835
2344.000000	101.332999
2342.000000	101.111040
2340.000000	100.983008
2338.000000	100.927566
2336.000000	100.927797
2334.000000	100.967231
2332.000000	101.044276
2330.000000	101.154024
2328.000000	101.290819
2326.000000	101.437260
2324.000000	101.589170
2322.000000	101.739881
2320.000000	101.886881
2318.000000	102.017794
2316.000000	102.133641
2314.000000	102.237228
2312.000000	102.331106
2310.000000	102.407328
2308.000000	102.469905
2306.000000	102.519087
2304.000000	102.563226
2302.000000	102.598559
2300.000000	102.630648
2298.000000	102.654721
2296.000000	102.678212
2294.000000	102.697318
2292.000000	102.714722
2290.000000	102.729749
2288.000000	102.745202
2286.000000	102.755241
2284.000000	102.763770
2282.000000	102.765853
2280.000000	102.765238
2278.000000	102.761644
2276.000000	102.763139
2274.000000	102.759954
2272.000000	102.753283
2270.000000	102.746006
2268.000000	102.747075
2266.000000	102.747307
2264.000000	102.747804
2262.000000	102.745470
2260.000000	102.743087
2258.000000	102.741557
2256.000000	102.744012
2254.000000	102.744756
2252.000000	102.754314
2250.000000	102.763097
2248.000000	102.772600
2246.000000	102.782359
2244.000000	102.794779
2242.000000	102.806179
2240.000000	102.823516
2238.000000	102.838885
2236.000000	102.856237
2234.000000	102.870514
2232.000000	102.885347
2230.000000	102.898735
2228.000000	102.914141
2226.000000	102.926695
2224.000000	102.941404
2222.000000	102.951219
2220.000000	102.960053
2218.000000	102.967487
2216.000000	102.976019
2214.000000	102.982838
2212.000000	102.991449
2210.000000	102.994573
2208.000000	103.001697
2206.000000	103.007673
2204.000000	103.015192
2202.000000	103.020748
2200.000000	103.029010
2198.000000	103.035388
2196.000000	103.040519
2194.000000	103.043266
2192.000000	103.050303
2190.000000	103.051186
2188.000000	103.053350
2186.000000	103.054882
2184.000000	103.056391
2182.000000	103.053979
2180.000000	103.054330
2178.000000	103.051980
2176.000000	103.053133
2174.000000	103.049348
2172.000000	103.030061
2170.000000	103.004805
2168.000000	103.018832
2166.000000	103.043696
2164.000000	103.054811
2162.000000	103.054392
2160.000000	103.053799
2158.000000	103.053281
2156.000000	103.057780
2154.000000	103.058129
2152.000000	103.059290
2150.000000	103.057988
2148.000000	103.059309
2146.000000	103.058716
2144.000000	103.061249
2142.000000	103.060060
2140.000000	103.061216
2138.000000	103.060060
2136.000000	103.060926
2134.000000	103.059614
2132.000000	103.061643
2130.000000	103.061965
2128.000000	103.062329
2126.000000	103.062887
2124.000000	103.065795
2122.000000	103.067461
2120.000000	103.070994
2118.000000	103.074193
2116.000000	103.081000
2114.000000	103.090258
2112.000000	103.103507
2110.000000	103.113050
2108.000000	103.128317
2106.000000	103.143662
2104.000000	103.162091
2102.000000	103.176476
2100.000000	103.189547
2098.000000	103.198873
2096.000000	103.215554
2094.000000	103.230071
2092.000000	103.241965
2090.000000	103.253843
2088.000000	103.278188
2086.000000	103.296505
2084.000000	103.313581
2082.000000	103.327387
2080.000000	103.346114
2078.000000	103.361638
2076.000000	103.381459
2074.000000	103.396757
2072.000000	103.419654
2070.000000	103.439672
2068.000000	103.457277
2066.000000	103.463758
2064.000000	103.487161
2062.000000	103.519463
2060.000000	103.548727
2058.000000	103.573249
2056.000000	103.598196
2054.000000	103.618179
2052.000000	103.640445
2050.000000	103.660289
2048.000000	103.684293
2046.000000	103.701685
2044.000000	103.717627
2042.000000	103.729504
2040.000000	103.755914
2038.000000	103.780723
2036.000000	103.796533
2034.000000	103.804689
2032.000000	103.805336
2030.000000	103.787551
2028.000000	103.802965
2026.000000	103.841604
2024.000000	103.865568
2022.000000	103.872797
2020.000000	103.869785
2018.000000	103.858587
2016.000000	103.886943
2014.000000	103.932819
2012.000000	103.962834
2010.000000	103.979024
2008.000000	103.997236
2006.000000	104.013808
2004.000000	104.026477
2002.000000	104.026219
2000.000000	104.033153
1998.000000	104.042664
1996.000000	104.044808
1994.000000	103.997046
1992.000000	103.956211
1990.000000	103.989147
1988.000000	104.027417
1986.000000	104.047022
1984.000000	104.052453
1982.000000	104.041680
1980.000000	104.032127
1978.000000	104.020653
1976.000000	104.009734
1974.000000	103.993393
1972.000000	103.977892
1970.000000	103.937667
1968.000000	103.874862
1966.000000	103.858983
1964.000000	103.874378
1962.000000	103.824586
1960.000000	103.707744
1958.000000	103.680540
1956.000000	103.763484
1954.000000	103.793872
1952.000000	103.781125
1950.000000	103.749725
1948.000000	103.722008
1946.000000	103.666765
1944.000000	103.559657
1942.000000	103.517594
1940.000000	103.607600
1938.000000	103.641552
1936.000000	103.624560
1934.000000	103.595125
1932.000000	103.574625
1930.000000	103.548444
1928.000000	103.523033
1926.000000	103.460364
1924.000000	103.355932
1922.000000	103.298783
1920.000000	103.191177
1918.000000	103.049440
1916.000000	103.166936
1914.000000	103.254417
1912.000000	103.195881
1910.000000	103.101033
1908.000000	103.067710
1906.000000	103.046966
1904.000000	103.012713
1902.000000	102.958680
1900.000000	102.916996
1898.000000	102.854268
1896.000000	102.784362
1894.000000	102.752062
1892.000000	102.693051
1890.000000	102.569065
1888.000000	102.618846
1886.000000	102.694307
1884.000000	102.699056
1882.000000	102.683902
1880.000000	102.672844
1878.000000	102.650116
1876.000000	102.633020
1874.000000	102.592332
1872.000000	102.427595
1870.000000	102.095287
1868.000000	102.063558
1866.000000	102.305752
1864.000000	102.435943
1862.000000	102.425808
1860.000000	102.393642
1858.000000	102.362260
1856.000000	102.345839
1854.000000	102.309833
1852.000000	102.273802
1850.000000	102.192390
1848.000000	102.026477
1846.000000	101.555437
1844.000000	101.269934
1842.000000	101.681824
1840.000000	101.964299
1838.000000	101.916923
1836.000000	101.867996
1834.000000	101.794279
1832.000000	101.506513
1830.000000	101.217493
1828.000000	101.289627
1826.000000	101.259880
1824.000000	101.282271
1822.000000	101.417656
1820.000000	101.409812
1818.000000	101.324026
1816.000000	101.269363
1814.000000	101.174393
1812.000000	100.993346
1810.000000	100.882166
1808.000000	100.886498
1806.000000	100.831920
1804.000000	100.650969
1802.000000	100.361104
1800.000000	100.220696
1798.000000	100.244924
1796.000000	100.115352
1794.000000	99.542938
1792.000000	99.233642
1790.000000	99.601595
1788.000000	99.805441
1786.000000	99.593385
1784.000000	99.452277
1782.000000	99.365093
1780.000000	99.269162
1778.000000	99.230596
1776.000000	98.930285
1774.000000	98.103273
1772.000000	97.695718
1770.000000	98.099052
1768.000000	98.337102
1766.000000	98.567605
1764.000000	98.413873
1762.000000	98.036821
1760.000000	98.086226
1758.000000	98.019122
1756.000000	97.892975
1754.000000	97.686555
1752.000000	96.978007
1750.000000	96.746856
1748.000000	96.976373
1746.000000	97.061839
1744.000000	96.924170
1742.000000	96.573080
1740.000000	96.229893
1738.000000	96.209085
1736.000000	95.315589
1734.000000	94.397938
1732.000000	95.280402
1730.000000	96.125423
1728.000000	96.344397
1726.000000	96.350256
1724.000000	96.253233
1722.000000	96.075255
1720.000000	95.207288
1718.000000	94.005161
1716.000000	94.244575
1714.000000	95.149742
1712.000000	95.604349
1710.000000	95.561026
1708.000000	95.230746
1706.000000	94.820470
1704.000000	94.600137
1702.000000	93.465924
1700.000000	92.619840
1698.000000	92.940090
1696.000000	92.861695
1694.000000	93.931496
1692.000000	94.878906
1690.000000	94.823876
1688.000000	94.348445
1686.000000	92.802106
1684.000000	92.218675
1682.000000	93.613184
1680.000000	94.421037
1678.000000	94.248622
1676.000000	93.586654
1674.000000	93.586889
1672.000000	93.655001
1670.000000	93.246926
1668.000000	93.505093
1666.000000	93.884769
1664.000000	93.559656
1662.000000	93.399206
1660.000000	93.664048
1658.000000	93.572899
1656.000000	92.287780
1654.000000	89.885694
1652.000000	90.062694
1650.000000	91.966371
1648.000000	91.851664
1646.000000	91.510028
1644.000000	92.236872
1642.000000	92.665938
1640.000000	92.429745
1638.000000	91.546802
1636.000000	90.510799
1634.000000	90.973905
1632.000000	91.744263
1630.000000	91.593111
1628.000000	91.179357
1626.000000	90.766120
1624.000000	90.143285
1622.000000	89.844670
1620.000000	89.484734
1618.000000	88.256055
1616.000000	87.730106
1614.000000	88.168819
1612.000000	87.876845
1610.000000	87.250809
1608.000000	86.936122
1606.000000	86.985357
1604.000000	87.181905
1602.000000	87.431742
1600.000000	87.683224
1598.000000	87.895317
1596.000000	88.031310
1594.000000	88.143569
1592.000000	88.221577
1590.000000	88.236103
1588.000000	88.207098
1586.000000	88.146072
1584.000000	88.074693
1582.000000	88.023844
1580.000000	87.844070
1578.000000	86.897673
1576.000000	86.231024
1574.000000	87.105009
1572.000000	87.386729
1570.000000	86.895331
1568.000000	86.980557
1566.000000	87.089546
1564.000000	86.776862
1562.000000	85.499116
1560.000000	83.389808
1558.000000	83.419283
1556.000000	84.938435
1554.000000	85.778237
1552.000000	86.411062
1550.000000	86.761699
1548.000000	86.942920
1546.000000	86.755571
1544.000000	86.266252
1542.000000	85.401396
1540.000000	84.921682
1538.000000	86.279069
1536.000000	87.625435
1534.000000	87.644760
1532.000000	87.987935
1530.000000	88.338034
1528.000000	88.128893
1526.000000	87.798848
1524.000000	87.379774
1522.000000	86.604578
1520.000000	86.754074
1518.000000	87.190044
1516.000000	87.219777
1514.000000	87.250616
1512.000000	87.044870
1510.000000	86.432880
1508.000000	84.874822
1506.000000	84.110986
1504.000000	84.801475
1502.000000	84.265411
1500.000000	81.762731
1498.000000	78.345289
1496.000000	75.845145
1494.000000	75.628471
1492.000000	76.714104
1490.000000	78.364451
1488.000000	80.341693
1486.000000	82.028522
1484.000000	83.136882
1482.000000	83.647861
1480.000000	83.882567
1478.000000	83.758614
1476.000000	83.297336
1474.000000	82.610060
1472.000000	82.433596
1470.000000	82.902859
1468.000000	82.842809
1466.000000	82.160661
1464.000000	81.773848
1462.000000	81.595629
1460.000000	80.512618
1458.000000	78.541348
1456.000000	77.562078
1454.000000	77.598569
1452.000000	77.267658
1450.000000	77.321739
1448.000000	78.113174
1446.000000	79.137442
1444.000000	79.670393
1442.000000	79.796018
1440.000000	79.642371
1438.000000	79.067479
1436.000000	78.993404
1434.000000	79.639993
1432.000000	79.782812
1430.000000	79.698848
1428.000000	79.762443
1426.000000	79.784394
1424.000000	79.652686
1422.000000	79.350055
1420.000000	78.658793
1418.000000	78.648672
1416.000000	79.018893
1414.000000	78.975797
1412.000000	78.631064
1410.000000	78.114882
1408.000000	77.357121
1406.000000	76.506264
1404.000000	76.044324
1402.000000	76.076355
1400.000000	76.235176
1398.000000	76.634533
1396.000000	76.980397
1394.000000	77.318048
1392.000000	77.751168
1390.000000	77.756723
1388.000000	77.361113
1386.000000	77.121894
1384.000000	77.109645
1382.000000	77.232821
1380.000000	77.325775
1378.000000	77.261922
1376.000000	77.067883
1374.000000	76.907042
1372.000000	76.915138
1370.000000	76.849886
1368.000000	76.698473
1366.000000	76.535962
1364.000000	76.256429
1362.000000	76.053563
1360.000000	76.011241
1358.000000	75.919976
1356.000000	75.732807
1354.000000	75.530377
1352.000000	75.327766
1350.000000	75.114972
1348.000000	74.901298
1346.000000	74.676946
1344.000000	74.426678
1342.000000	74.132330
1340.000000	73.846500
1338.000000	73.718586
1336.000000	73.678410
1334.000000	73.604294
1332.000000	73.461012
1330.000000	73.273807
1328.000000	73.054284
1326.000000	72.813167
1324.000000	72.548706
1322.000000	72.263928
1320.000000	71.950981
1318.000000	71.653135
1316.000000	71.365470
1314.000000	71.057730
1312.000000	70.751549
1310.000000	70.451844
1308.000000	70.130516
1306.000000	69.802288
1304.000000	69.463473
1302.000000	69.122844
1300.000000	68.779934
1298.000000	68.438161
1296.000000	68.086104
1294.000000	67.724504
1292.000000	67.343645
1290.000000	66.950988
1288.000000	66.548800
1286.000000	66.152330
1284.000000	65.743746
1282.000000	65.316340
1280.000000	64.863783
1278.000000	64.378505
1276.000000	63.841667
1274.000000	63.233552
1272.000000	62.506406
1270.000000	61.621879
1268.000000	60.522706
1266.000000	59.211454
1264.000000	57.844584
1262.000000	56.746899
1260.000000	56.197976
1258.000000	56.206239
1256.000000	56.496541
1254.000000	56.743255
1252.000000	56.745570
1250.000000	56.509333
1248.000000	56.117695
1246.000000	55.650483
1244.000000	55.143646
1242.000000	54.630283
1240.000000	54.125511
1238.000000	53.638875
1236.000000	53.166004
1234.000000	52.707270
1232.000000	52.255575
1230.000000	51.812224
1228.000000	51.369265
1226.000000	50.922785
1224.000000	50.465383
1222.000000	49.996323
1220.000000	49.502965
1218.000000	48.992866
1216.000000	48.477220
1214.000000	47.969151
1212.000000	47.477375
1210.000000	47.025720
1208.000000	46.611114
1206.000000	46.215686
1204.000000	45.821315
1202.000000	45.427507
1200.000000	45.036679
1198.000000	44.650821
1196.000000	44.258972
1194.000000	43.856015
1192.000000	43.439788
1190.000000	43.012251
1188.000000	42.569481
1186.000000	42.102305
1184.000000	41.523386
1182.000000	40.798247
1180.000000	40.233727
1178.000000	39.989804
1176.000000	39.762164
1174.000000	39.406835
1172.000000	38.980916
1170.000000	38.534460
1168.000000	38.072525
1166.000000	37.602064
1164.000000	37.133190
1162.000000	36.675426
1160.000000	36.219991
1158.000000	35.784068
1156.000000	35.365036
1154.000000	34.952188
1152.000000	34.529081
1150.000000	34.107616
1148.000000	33.676057
1146.000000	33.239095
1144.000000	32.812147
1142.000000	32.435569
1140.000000	32.126129
1138.000000	31.814277
1136.000000	31.453928
1134.000000	31.062140
1132.000000	30.650237
1130.000000	30.229339
1128.000000	29.807847
1126.000000	29.385879
1124.000000	28.958652
1122.000000	28.527454
1120.000000	28.080468
1118.000000	27.624734
1116.000000	27.162095
1114.000000	26.695054
1112.000000	26.227922
1110.000000	25.766116
1108.000000	25.311492
1106.000000	24.881031
1104.000000	24.467275
1102.000000	24.058859
1100.000000	23.647065
1098.000000	23.241063
1096.000000	22.845201
1094.000000	22.465208
1092.000000	22.098382
1090.000000	21.748055
1088.000000	21.408236
1086.000000	21.072813
1084.000000	20.726318
1082.000000	20.370199
1080.000000	20.034904
1078.000000	19.733828
1076.000000	19.456689
1074.000000	19.224676
1072.000000	19.011940
1070.000000	18.789473
1068.000000	18.557632
1066.000000	18.329101
1064.000000	18.097682
1062.000000	17.862819
1060.000000	17.617617
1058.000000	17.334697
1056.000000	16.950079
1054.000000	16.442175
1052.000000	15.935971
1050.000000	15.638064
1048.000000	15.604408
1046.000000	15.684991
1044.000000	15.685662
1042.000000	15.569492
1040.000000	15.383650
1038.000000	15.173400
1036.000000	14.949502
1034.000000	14.711639
1032.000000	14.462294
1030.000000	14.210246
1028.000000	13.947818
1026.000000	13.678962
1024.000000	13.410080
1022.000000	13.145369
1020.000000	12.889279
1018.000000	12.653212
1016.000000	12.441418
1014.000000	12.257584
1012.000000	12.092522
1010.000000	11.932549
1008.000000	11.764243
1006.000000	11.586862
1004.000000	11.397761
1002.000000	11.191645
1000.000000	10.961255
