PE IR       SUBTECH     SPECTRUM    ASCII       PEDS        4.00        
   -1
TE109A_040_110K_SB.ASC
20/04/21
15:05:13.00
20/04/21
15:05:13.00
Administrator
TE109A, Tuesday, April 21 2020, 040.
1000.000000
#HDR
-1
-1
#GR
cm-1
EGY
1.0
0.0
6000.000000
-2.000000
2501
8
7.597916
0.782669
#DATA
6000.000000	1.364390
5998.000000	1.366096
5996.000000	1.370291
5994.000000	1.374847
5992.000000	1.378196
5990.000000	1.379312
5988.000000	1.379969
5986.000000	1.381141
5984.000000	1.382601
5982.000000	1.384703
5980.000000	1.388643
5978.000000	1.392705
5976.000000	1.394693
5974.000000	1.396487
5972.000000	1.399348
5970.000000	1.403127
5968.000000	1.406889
5966.000000	1.409245
5964.000000	1.411699
5962.000000	1.414487
5960.000000	1.417370
5958.000000	1.420496
5956.000000	1.423756
5954.000000	1.426785
5952.000000	1.429783
5950.000000	1.433762
5948.000000	1.436855
5946.000000	1.439193
5944.000000	1.442269
5942.000000	1.444911
5940.000000	1.448219
5938.000000	1.451766
5936.000000	1.454523
5934.000000	1.456611
5932.000000	1.458152
5930.000000	1.461009
5928.000000	1.463495
5926.000000	1.465252
5924.000000	1.466360
5922.000000	1.470455
5920.000000	1.476126
5918.000000	1.480887
5916.000000	1.484180
5914.000000	1.486738
5912.000000	1.489486
5910.000000	1.492235
5908.000000	1.494257
5906.000000	1.495932
5904.000000	1.498429
5902.000000	1.501742
5900.000000	1.504503
5898.000000	1.507356
5896.000000	1.510768
5894.000000	1.514795
5892.000000	1.518907
5890.000000	1.522143
5888.000000	1.525009
5886.000000	1.527942
5884.000000	1.530662
5882.000000	1.533859
5880.000000	1.537302
5878.000000	1.540711
5876.000000	1.543566
5874.000000	1.544187
5872.000000	1.545056
5870.000000	1.547462
5868.000000	1.551792
5866.000000	1.557147
5864.000000	1.560778
5862.000000	1.564025
5860.000000	1.567040
5858.000000	1.569651
5856.000000	1.573217
5854.000000	1.576718
5852.000000	1.579361
5850.000000	1.581851
5848.000000	1.584945
5846.000000	1.590163
5844.000000	1.595605
5842.000000	1.597737
5840.000000	1.600080
5838.000000	1.602473
5836.000000	1.605486
5834.000000	1.607519
5832.000000	1.610575
5830.000000	1.616179
5828.000000	1.621381
5826.000000	1.624761
5824.000000	1.627889
5822.000000	1.630434
5820.000000	1.633041
5818.000000	1.634587
5816.000000	1.638148
5814.000000	1.643872
5812.000000	1.648066
5810.000000	1.650896
5808.000000	1.653963
5806.000000	1.657967
5804.000000	1.661549
5802.000000	1.663407
5800.000000	1.665400
5798.000000	1.668191
5796.000000	1.671741
5794.000000	1.674792
5792.000000	1.677610
5790.000000	1.680341
5788.000000	1.683676
5786.000000	1.689774
5784.000000	1.694996
5782.000000	1.699141
5780.000000	1.702035
5778.000000	1.705771
5776.000000	1.710671
5774.000000	1.714261
5772.000000	1.716004
5770.000000	1.717681
5768.000000	1.721088
5766.000000	1.725623
5764.000000	1.728124
5762.000000	1.730914
5760.000000	1.734554
5758.000000	1.739174
5756.000000	1.742854
5754.000000	1.746463
5752.000000	1.750289
5750.000000	1.753690
5748.000000	1.756497
5746.000000	1.760031
5744.000000	1.764618
5742.000000	1.768547
5740.000000	1.772079
5738.000000	1.775986
5736.000000	1.779411
5734.000000	1.781775
5732.000000	1.782898
5730.000000	1.784678
5728.000000	1.787645
5726.000000	1.790940
5724.000000	1.794834
5722.000000	1.798814
5720.000000	1.802963
5718.000000	1.805300
5716.000000	1.807822
5714.000000	1.811664
5712.000000	1.815198
5710.000000	1.819024
5708.000000	1.820972
5706.000000	1.823720
5704.000000	1.827518
5702.000000	1.831288
5700.000000	1.836431
5698.000000	1.840943
5696.000000	1.847272
5694.000000	1.852075
5692.000000	1.854035
5690.000000	1.854781
5688.000000	1.857120
5686.000000	1.863061
5684.000000	1.868341
5682.000000	1.872055
5680.000000	1.874870
5678.000000	1.877725
5676.000000	1.881798
5674.000000	1.886341
5672.000000	1.891519
5670.000000	1.894736
5668.000000	1.896997
5666.000000	1.900429
5664.000000	1.904973
5662.000000	1.909089
5660.000000	1.911843
5658.000000	1.915390
5656.000000	1.918780
5654.000000	1.921805
5652.000000	1.925124
5650.000000	1.930256
5648.000000	1.935777
5646.000000	1.940894
5644.000000	1.944250
5642.000000	1.947001
5640.000000	1.949311
5638.000000	1.952843
5636.000000	1.955902
5634.000000	1.958705
5632.000000	1.960646
5630.000000	1.964674
5628.000000	1.970756
5626.000000	1.976752
5624.000000	1.982042
5622.000000	1.983949
5620.000000	1.985830
5618.000000	1.989749
5616.000000	1.995108
5614.000000	1.999436
5612.000000	2.001142
5610.000000	2.003592
5608.000000	2.008419
5606.000000	2.013191
5604.000000	2.016065
5602.000000	2.018873
5600.000000	2.023545
5598.000000	2.028417
5596.000000	2.032020
5594.000000	2.034486
5592.000000	2.037618
5590.000000	2.041407
5588.000000	2.046094
5586.000000	2.051167
5584.000000	2.056921
5582.000000	2.060589
5580.000000	2.062849
5578.000000	2.065185
5576.000000	2.068957
5574.000000	2.074154
5572.000000	2.078349
5570.000000	2.082545
5568.000000	2.087329
5566.000000	2.092114
5564.000000	2.095020
5562.000000	2.097606
5560.000000	2.100750
5558.000000	2.105861
5556.000000	2.110680
5554.000000	2.114030
5552.000000	2.118480
5550.000000	2.122785
5548.000000	2.126577
5546.000000	2.130679
5544.000000	2.135308
5542.000000	2.140349
5540.000000	2.143404
5538.000000	2.145813
5536.000000	2.149117
5534.000000	2.153671
5532.000000	2.159234
5530.000000	2.163319
5528.000000	2.165141
5526.000000	2.167726
5524.000000	2.171861
5522.000000	2.176893
5520.000000	2.181482
5518.000000	2.185276
5516.000000	2.188601
5514.000000	2.192300
5512.000000	2.196559
5510.000000	2.199710
5508.000000	2.202800
5506.000000	2.207435
5504.000000	2.213839
5502.000000	2.218444
5500.000000	2.222442
5498.000000	2.226487
5496.000000	2.230523
5494.000000	2.234454
5492.000000	2.237357
5490.000000	2.241149
5488.000000	2.245641
5486.000000	2.250969
5484.000000	2.255698
5482.000000	2.259344
5480.000000	2.262658
5478.000000	2.265406
5476.000000	2.268324
5474.000000	2.272877
5472.000000	2.279136
5470.000000	2.284707
5468.000000	2.287891
5466.000000	2.290767
5464.000000	2.294383
5462.000000	2.299147
5460.000000	2.303740
5458.000000	2.307237
5456.000000	2.310679
5454.000000	2.314700
5452.000000	2.319206
5450.000000	2.321638
5448.000000	2.322724
5446.000000	2.325982
5444.000000	2.332645
5442.000000	2.339884
5440.000000	2.344649
5438.000000	2.348534
5436.000000	2.352988
5434.000000	2.356737
5432.000000	2.359444
5430.000000	2.362384
5428.000000	2.366970
5426.000000	2.371508
5424.000000	2.376206
5422.000000	2.381145
5420.000000	2.384062
5418.000000	2.385487
5416.000000	2.387341
5414.000000	2.391782
5412.000000	2.396002
5410.000000	2.399735
5408.000000	2.405539
5406.000000	2.412634
5404.000000	2.418540
5402.000000	2.422597
5400.000000	2.425456
5398.000000	2.428445
5396.000000	2.431151
5394.000000	2.435284
5392.000000	2.441539
5390.000000	2.444928
5388.000000	2.446686
5386.000000	2.449177
5384.000000	2.454954
5382.000000	2.461261
5380.000000	2.465375
5378.000000	2.469909
5376.000000	2.475658
5374.000000	2.481320
5372.000000	2.484700
5370.000000	2.487778
5368.000000	2.492577
5366.000000	2.497490
5364.000000	2.500517
5362.000000	2.504239
5360.000000	2.508248
5358.000000	2.511983
5356.000000	2.514311
5354.000000	2.517054
5352.000000	2.520587
5350.000000	2.525086
5348.000000	2.530724
5346.000000	2.535875
5344.000000	2.539363
5342.000000	2.541132
5340.000000	2.542629
5338.000000	2.546635
5336.000000	2.552168
5334.000000	2.556649
5332.000000	2.558496
5330.000000	2.561258
5328.000000	2.566024
5326.000000	2.571687
5324.000000	2.576430
5322.000000	2.579773
5320.000000	2.583780
5318.000000	2.588764
5316.000000	2.594687
5314.000000	2.598931
5312.000000	2.600424
5310.000000	2.602264
5308.000000	2.605065
5306.000000	2.608646
5304.000000	2.612183
5302.000000	2.616151
5300.000000	2.620788
5298.000000	2.624070
5296.000000	2.627014
5294.000000	2.631055
5292.000000	2.635900
5290.000000	2.640389
5288.000000	2.643353
5286.000000	2.645669
5284.000000	2.648122
5282.000000	2.651640
5280.000000	2.656414
5278.000000	2.660898
5276.000000	2.664139
5274.000000	2.667356
5272.000000	2.670971
5270.000000	2.674015
5268.000000	2.677341
5266.000000	2.681008
5264.000000	2.683993
5262.000000	2.685991
5260.000000	2.687432
5258.000000	2.689619
5256.000000	2.693630
5254.000000	2.699052
5252.000000	2.702507
5250.000000	2.703690
5248.000000	2.705262
5246.000000	2.708168
5244.000000	2.710403
5242.000000	2.711824
5240.000000	2.713791
5238.000000	2.715924
5236.000000	2.719752
5234.000000	2.724893
5232.000000	2.729299
5230.000000	2.730799
5228.000000	2.730889
5226.000000	2.733009
5224.000000	2.736867
5222.000000	2.740201
5220.000000	2.742041
5218.000000	2.742735
5216.000000	2.744417
5214.000000	2.746178
5212.000000	2.747651
5210.000000	2.748180
5208.000000	2.749774
5206.000000	2.753229
5204.000000	2.757032
5202.000000	2.758988
5200.000000	2.760601
5198.000000	2.763959
5196.000000	2.767400
5194.000000	2.769242
5192.000000	2.770744
5190.000000	2.773507
5188.000000	2.776190
5186.000000	2.777966
5184.000000	2.780065
5182.000000	2.782974
5180.000000	2.785751
5178.000000	2.789670
5176.000000	2.793975
5174.000000	2.797203
5172.000000	2.797168
5170.000000	2.796754
5168.000000	2.798236
5166.000000	2.801169
5164.000000	2.803612
5162.000000	2.805143
5160.000000	2.807500
5158.000000	2.811480
5156.000000	2.815988
5154.000000	2.819698
5152.000000	2.822999
5150.000000	2.824901
5148.000000	2.826427
5146.000000	2.828964
5144.000000	2.832289
5142.000000	2.833845
5140.000000	2.834230
5138.000000	2.836370
5136.000000	2.840363
5134.000000	2.844569
5132.000000	2.848542
5130.000000	2.851737
5128.000000	2.855229
5126.000000	2.858060
5124.000000	2.860274
5122.000000	2.862816
5120.000000	2.866806
5118.000000	2.871641
5116.000000	2.875357
5114.000000	2.880348
5112.000000	2.885472
5110.000000	2.889658
5108.000000	2.891998
5106.000000	2.894253
5104.000000	2.896582
5102.000000	2.899506
5100.000000	2.903618
5098.000000	2.907430
5096.000000	2.910598
5094.000000	2.914156
5092.000000	2.919461
5090.000000	2.924838
5088.000000	2.930490
5086.000000	2.936771
5084.000000	2.941600
5082.000000	2.944002
5080.000000	2.945822
5078.000000	2.949306
5076.000000	2.954580
5074.000000	2.960341
5072.000000	2.965656
5070.000000	2.969484
5068.000000	2.972389
5066.000000	2.976791
5064.000000	2.982916
5062.000000	2.987972
5060.000000	2.990828
5058.000000	2.993919
5056.000000	2.998716
5054.000000	3.003107
5052.000000	3.007706
5050.000000	3.011676
5048.000000	3.015444
5046.000000	3.021206
5044.000000	3.028800
5042.000000	3.034517
5040.000000	3.037232
5038.000000	3.040628
5036.000000	3.044850
5034.000000	3.048276
5032.000000	3.052520
5030.000000	3.057875
5028.000000	3.063408
5026.000000	3.067529
5024.000000	3.071538
5022.000000	3.074948
5020.000000	3.078366
5018.000000	3.083338
5016.000000	3.089915
5014.000000	3.096367
5012.000000	3.100917
5010.000000	3.104291
5008.000000	3.108516
5006.000000	3.114104
5004.000000	3.118697
5002.000000	3.121384
5000.000000	3.124139
4998.000000	3.129555
4996.000000	3.136598
4994.000000	3.143406
4992.000000	3.148424
4990.000000	3.152913
4988.000000	3.158200
4986.000000	3.163968
4984.000000	3.168535
4982.000000	3.172644
4980.000000	3.176232
4978.000000	3.179815
4976.000000	3.184759
4974.000000	3.192066
4972.000000	3.199698
4970.000000	3.206158
4968.000000	3.211598
4966.000000	3.216478
4964.000000	3.221245
4962.000000	3.225958
4960.000000	3.231725
4958.000000	3.237581
4956.000000	3.241614
4954.000000	3.244438
4952.000000	3.248276
4950.000000	3.252870
4948.000000	3.258602
4946.000000	3.264544
4944.000000	3.270207
4942.000000	3.275422
4940.000000	3.281164
4938.000000	3.287361
4936.000000	3.293580
4934.000000	3.298759
4932.000000	3.302595
4930.000000	3.306773
4928.000000	3.311527
4926.000000	3.317310
4924.000000	3.324568
4922.000000	3.330822
4920.000000	3.334981
4918.000000	3.340296
4916.000000	3.346535
4914.000000	3.351362
4912.000000	3.356594
4910.000000	3.362659
4908.000000	3.368777
4906.000000	3.374420
4904.000000	3.380349
4902.000000	3.386110
4900.000000	3.392160
4898.000000	3.398119
4896.000000	3.403072
4894.000000	3.407910
4892.000000	3.413800
4890.000000	3.420107
4888.000000	3.425288
4886.000000	3.429609
4884.000000	3.435667
4882.000000	3.443512
4880.000000	3.450735
4878.000000	3.456967
4876.000000	3.464559
4874.000000	3.472775
4872.000000	3.478315
4870.000000	3.480648
4868.000000	3.484677
4866.000000	3.491454
4864.000000	3.497377
4862.000000	3.500874
4860.000000	3.506306
4858.000000	3.514031
4856.000000	3.521612
4854.000000	3.528029
4852.000000	3.533345
4850.000000	3.537621
4848.000000	3.542457
4846.000000	3.548443
4844.000000	3.553296
4842.000000	3.558627
4840.000000	3.564959
4838.000000	3.572153
4836.000000	3.579105
4834.000000	3.585760
4832.000000	3.591174
4830.000000	3.596739
4828.000000	3.602999
4826.000000	3.610198
4824.000000	3.616761
4822.000000	3.621938
4820.000000	3.626710
4818.000000	3.632723
4816.000000	3.638321
4814.000000	3.644311
4812.000000	3.652215
4810.000000	3.659423
4808.000000	3.664105
4806.000000	3.669438
4804.000000	3.676674
4802.000000	3.684110
4800.000000	3.690131
4798.000000	3.695060
4796.000000	3.700574
4794.000000	3.707637
4792.000000	3.715183
4790.000000	3.723180
4788.000000	3.730998
4786.000000	3.736799
4784.000000	3.742286
4782.000000	3.747695
4780.000000	3.754173
4778.000000	3.761878
4776.000000	3.768769
4774.000000	3.774497
4772.000000	3.780982
4770.000000	3.787807
4768.000000	3.793496
4766.000000	3.800226
4764.000000	3.806853
4762.000000	3.813561
4760.000000	3.821111
4758.000000	3.826688
4756.000000	3.830124
4754.000000	3.834723
4752.000000	3.841718
4750.000000	3.848522
4748.000000	3.854953
4746.000000	3.862034
4744.000000	3.869099
4742.000000	3.876278
4740.000000	3.882913
4738.000000	3.888854
4736.000000	3.893713
4734.000000	3.899303
4732.000000	3.906157
4730.000000	3.913013
4728.000000	3.919005
4726.000000	3.924149
4724.000000	3.928880
4722.000000	3.933840
4720.000000	3.940333
4718.000000	3.948804
4716.000000	3.957556
4714.000000	3.964182
4712.000000	3.969676
4710.000000	3.976401
4708.000000	3.983846
4706.000000	3.990156
4704.000000	3.995824
4702.000000	4.001766
4700.000000	4.008166
4698.000000	4.014062
4696.000000	4.019978
4694.000000	4.025880
4692.000000	4.032356
4690.000000	4.039584
4688.000000	4.046046
4686.000000	4.051657
4684.000000	4.058177
4682.000000	4.065453
4680.000000	4.072053
4678.000000	4.078088
4676.000000	4.083864
4674.000000	4.089667
4672.000000	4.095777
4670.000000	4.102008
4668.000000	4.109719
4666.000000	4.116680
4664.000000	4.120888
4662.000000	4.125319
4660.000000	4.131942
4658.000000	4.138706
4656.000000	4.145494
4654.000000	4.152635
4652.000000	4.157913
4650.000000	4.161982
4648.000000	4.167389
4646.000000	4.173115
4644.000000	4.178639
4642.000000	4.185460
4640.000000	4.192994
4638.000000	4.199187
4636.000000	4.203560
4634.000000	4.207906
4632.000000	4.213529
4630.000000	4.220441
4628.000000	4.226440
4626.000000	4.231327
4624.000000	4.237262
4622.000000	4.245204
4620.000000	4.253210
4618.000000	4.259013
4616.000000	4.263867
4614.000000	4.268996
4612.000000	4.274442
4610.000000	4.280587
4608.000000	4.287197
4606.000000	4.293838
4604.000000	4.300206
4602.000000	4.306671
4600.000000	4.313829
4598.000000	4.321182
4596.000000	4.326702
4594.000000	4.331184
4592.000000	4.336597
4590.000000	4.342414
4588.000000	4.347595
4586.000000	4.353507
4584.000000	4.360068
4582.000000	4.366111
4580.000000	4.372504
4578.000000	4.379932
4576.000000	4.386873
4574.000000	4.393338
4572.000000	4.398837
4570.000000	4.404071
4568.000000	4.410486
4566.000000	4.417159
4564.000000	4.422168
4562.000000	4.426722
4560.000000	4.430361
4558.000000	4.434749
4556.000000	4.440427
4554.000000	4.446745
4552.000000	4.452401
4550.000000	4.458036
4548.000000	4.464657
4546.000000	4.472983
4544.000000	4.479962
4542.000000	4.484533
4540.000000	4.489210
4538.000000	4.495038
4536.000000	4.501406
4534.000000	4.507776
4532.000000	4.513523
4530.000000	4.518355
4528.000000	4.524502
4526.000000	4.531672
4524.000000	4.537443
4522.000000	4.542144
4520.000000	4.547936
4518.000000	4.553813
4516.000000	4.559851
4514.000000	4.566286
4512.000000	4.572245
4510.000000	4.577640
4508.000000	4.582119
4506.000000	4.587034
4504.000000	4.594299
4502.000000	4.601924
4500.000000	4.608330
4498.000000	4.615767
4496.000000	4.622305
4494.000000	4.626877
4492.000000	4.631666
4490.000000	4.637616
4488.000000	4.644184
4486.000000	4.651315
4484.000000	4.657283
4482.000000	4.661892
4480.000000	4.666619
4478.000000	4.672391
4476.000000	4.679634
4474.000000	4.687141
4472.000000	4.693207
4470.000000	4.698439
4468.000000	4.703572
4466.000000	4.707678
4464.000000	4.711605
4462.000000	4.716526
4460.000000	4.721233
4458.000000	4.726835
4456.000000	4.733027
4454.000000	4.737516
4452.000000	4.743333
4450.000000	4.750897
4448.000000	4.756447
4446.000000	4.761202
4444.000000	4.766852
4442.000000	4.772117
4440.000000	4.777914
4438.000000	4.783493
4436.000000	4.788655
4434.000000	4.795549
4432.000000	4.802006
4430.000000	4.805732
4428.000000	4.809826
4426.000000	4.816405
4424.000000	4.822651
4422.000000	4.827156
4420.000000	4.830352
4418.000000	4.834896
4416.000000	4.843257
4414.000000	4.852796
4412.000000	4.858621
4410.000000	4.860910
4408.000000	4.863432
4406.000000	4.868573
4404.000000	4.876070
4402.000000	4.882415
4400.000000	4.886170
4398.000000	4.890344
4396.000000	4.895262
4394.000000	4.901070
4392.000000	4.907924
4390.000000	4.912646
4388.000000	4.915902
4386.000000	4.922148
4384.000000	4.929073
4382.000000	4.934374
4380.000000	4.939680
4378.000000	4.945389
4376.000000	4.949669
4374.000000	4.952944
4372.000000	4.956017
4370.000000	4.959341
4368.000000	4.964660
4366.000000	4.970609
4364.000000	4.974199
4362.000000	4.977264
4360.000000	4.981751
4358.000000	4.987350
4356.000000	4.993245
4354.000000	4.997441
4352.000000	5.000485
4350.000000	5.004095
4348.000000	5.008505
4346.000000	5.014338
4344.000000	5.020619
4342.000000	5.024940
4340.000000	5.028504
4338.000000	5.033247
4336.000000	5.037850
4334.000000	5.042017
4332.000000	5.046639
4330.000000	5.050825
4328.000000	5.056095
4326.000000	5.062947
4324.000000	5.068907
4322.000000	5.073606
4320.000000	5.077534
4318.000000	5.081273
4316.000000	5.087217
4314.000000	5.092565
4312.000000	5.095619
4310.000000	5.100542
4308.000000	5.106661
4306.000000	5.110170
4304.000000	5.113964
4302.000000	5.119499
4300.000000	5.125564
4298.000000	5.131416
4296.000000	5.136095
4294.000000	5.140377
4292.000000	5.145534
4290.000000	5.149823
4288.000000	5.153219
4286.000000	5.156316
4284.000000	5.159874
4282.000000	5.164674
4280.000000	5.169650
4278.000000	5.173576
4276.000000	5.178349
4274.000000	5.184008
4272.000000	5.188509
4270.000000	5.192250
4268.000000	5.196775
4266.000000	5.201388
4264.000000	5.205212
4262.000000	5.208225
4260.000000	5.212133
4258.000000	5.217535
4256.000000	5.222372
4254.000000	5.225726
4252.000000	5.229159
4250.000000	5.233362
4248.000000	5.239160
4246.000000	5.246411
4244.000000	5.251600
4242.000000	5.253262
4240.000000	5.255463
4238.000000	5.260658
4236.000000	5.266419
4234.000000	5.271090
4232.000000	5.275414
4230.000000	5.280986
4228.000000	5.287076
4226.000000	5.291824
4224.000000	5.296474
4222.000000	5.301003
4220.000000	5.304599
4218.000000	5.309806
4216.000000	5.315302
4214.000000	5.319312
4212.000000	5.324087
4210.000000	5.329346
4208.000000	5.334618
4206.000000	5.340921
4204.000000	5.346367
4202.000000	5.351901
4200.000000	5.359551
4198.000000	5.367205
4196.000000	5.372881
4194.000000	5.377615
4192.000000	5.381871
4190.000000	5.386437
4188.000000	5.391841
4186.000000	5.396909
4184.000000	5.402023
4182.000000	5.407707
4180.000000	5.412359
4178.000000	5.416617
4176.000000	5.421061
4174.000000	5.425429
4172.000000	5.429950
4170.000000	5.434364
4168.000000	5.439853
4166.000000	5.446044
4164.000000	5.450302
4162.000000	5.453228
4160.000000	5.457602
4158.000000	5.464974
4156.000000	5.472906
4154.000000	5.479146
4152.000000	5.484361
4150.000000	5.488981
4148.000000	5.494260
4146.000000	5.500897
4144.000000	5.506266
4142.000000	5.509872
4140.000000	5.514082
4138.000000	5.519989
4136.000000	5.526024
4134.000000	5.530709
4132.000000	5.535285
4130.000000	5.540760
4128.000000	5.547201
4126.000000	5.552869
4124.000000	5.555935
4122.000000	5.559700
4120.000000	5.565429
4118.000000	5.570260
4116.000000	5.575076
4114.000000	5.580741
4112.000000	5.586531
4110.000000	5.591990
4108.000000	5.596702
4106.000000	5.601868
4104.000000	5.607998
4102.000000	5.613732
4100.000000	5.619346
4098.000000	5.624915
4096.000000	5.629886
4094.000000	5.634161
4092.000000	5.638944
4090.000000	5.645454
4088.000000	5.653419
4086.000000	5.660292
4084.000000	5.665194
4082.000000	5.669376
4080.000000	5.674213
4078.000000	5.678560
4076.000000	5.682200
4074.000000	5.687446
4072.000000	5.693569
4070.000000	5.698119
4068.000000	5.702632
4066.000000	5.708113
4064.000000	5.713626
4062.000000	5.719290
4060.000000	5.724727
4058.000000	5.728151
4056.000000	5.732493
4054.000000	5.739311
4052.000000	5.744119
4050.000000	5.747395
4048.000000	5.752873
4046.000000	5.759640
4044.000000	5.765752
4042.000000	5.770257
4040.000000	5.774107
4038.000000	5.779351
4036.000000	5.785394
4034.000000	5.790799
4032.000000	5.796218
4030.000000	5.802080
4028.000000	5.808067
4026.000000	5.813127
4024.000000	5.817794
4022.000000	5.823143
4020.000000	5.828673
4018.000000	5.834600
4016.000000	5.841483
4014.000000	5.848274
4012.000000	5.853662
4010.000000	5.858020
4008.000000	5.863575
4006.000000	5.870368
4004.000000	5.877169
4002.000000	5.883455
4000.000000	5.889752
3998.000000	5.896143
3996.000000	5.901967
3994.000000	5.906814
3992.000000	5.911080
3990.000000	5.916400
3988.000000	5.924199
3986.000000	5.931242
3984.000000	5.934230
3982.000000	5.938010
3980.000000	5.946075
3978.000000	5.952781
3976.000000	5.957247
3974.000000	5.964526
3972.000000	5.972869
3970.000000	5.978748
3968.000000	5.985480
3966.000000	5.992474
3964.000000	5.997133
3962.000000	6.003565
3960.000000	6.011450
3958.000000	6.019114
3956.000000	6.027825
3954.000000	6.035018
3952.000000	6.039483
3950.000000	6.044376
3948.000000	6.051854
3946.000000	6.060337
3944.000000	6.067318
3942.000000	6.074051
3940.000000	6.084545
3938.000000	6.097403
3936.000000	6.104247
3934.000000	6.105319
3932.000000	6.111041
3930.000000	6.123227
3928.000000	6.132905
3926.000000	6.138480
3924.000000	6.146135
3922.000000	6.154091
3920.000000	6.158356
3918.000000	6.165513
3916.000000	6.181331
3914.000000	6.199017
3912.000000	6.210983
3910.000000	6.217491
3908.000000	6.215600
3906.000000	6.206580
3904.000000	6.202046
3902.000000	6.208154
3900.000000	6.227152
3898.000000	6.254091
3896.000000	6.271750
3894.000000	6.272076
3892.000000	6.272676
3890.000000	6.283068
3888.000000	6.285904
3886.000000	6.287814
3884.000000	6.301728
3882.000000	6.315310
3880.000000	6.329104
3878.000000	6.342592
3876.000000	6.346034
3874.000000	6.340526
3872.000000	6.329292
3870.000000	6.331109
3868.000000	6.350286
3866.000000	6.364715
3864.000000	6.377758
3862.000000	6.397122
3860.000000	6.410145
3858.000000	6.389802
3856.000000	6.331457
3854.000000	6.306046
3852.000000	6.357019
3850.000000	6.425988
3848.000000	6.461474
3846.000000	6.468242
3844.000000	6.463852
3842.000000	6.451677
3840.000000	6.431431
3838.000000	6.429095
3836.000000	6.456113
3834.000000	6.485094
3832.000000	6.503973
3830.000000	6.519838
3828.000000	6.531796
3826.000000	6.533947
3824.000000	6.519778
3822.000000	6.509282
3820.000000	6.514922
3818.000000	6.513236
3816.000000	6.522624
3814.000000	6.561009
3812.000000	6.588850
3810.000000	6.582391
3808.000000	6.569224
3806.000000	6.572648
3804.000000	6.564633
3802.000000	6.555360
3800.000000	6.579109
3798.000000	6.610732
3796.000000	6.631318
3794.000000	6.646106
3792.000000	6.654027
3790.000000	6.658785
3788.000000	6.662771
3786.000000	6.665253
3784.000000	6.667561
3782.000000	6.667345
3780.000000	6.668850
3778.000000	6.679258
3776.000000	6.690194
3774.000000	6.691736
3772.000000	6.684986
3770.000000	6.682849
3768.000000	6.687967
3766.000000	6.696251
3764.000000	6.706205
3762.000000	6.707301
3760.000000	6.703310
3758.000000	6.706580
3756.000000	6.698637
3754.000000	6.661705
3752.000000	6.628819
3750.000000	6.635965
3748.000000	6.647088
3746.000000	6.632277
3744.000000	6.651159
3742.000000	6.707303
3740.000000	6.730233
3738.000000	6.713498
3736.000000	6.700844
3734.000000	6.709361
3732.000000	6.731995
3730.000000	6.755280
3728.000000	6.762115
3726.000000	6.761999
3724.000000	6.766569
3722.000000	6.773057
3720.000000	6.779459
3718.000000	6.783743
3716.000000	6.773533
3714.000000	6.745703
3712.000000	6.731045
3710.000000	6.744919
3708.000000	6.764231
3706.000000	6.768978
3704.000000	6.759221
3702.000000	6.750861
3700.000000	6.752544
3698.000000	6.751895
3696.000000	6.740304
3694.000000	6.717878
3692.000000	6.680218
3690.000000	6.643173
3688.000000	6.645432
3686.000000	6.671917
3684.000000	6.677238
3682.000000	6.660153
3680.000000	6.626261
3678.000000	6.570902
3676.000000	6.531214
3674.000000	6.523976
3672.000000	6.508500
3670.000000	6.498083
3668.000000	6.509088
3666.000000	6.512882
3664.000000	6.499799
3662.000000	6.479871
3660.000000	6.452253
3658.000000	6.414798
3656.000000	6.388833
3654.000000	6.368393
3652.000000	6.324775
3650.000000	6.281990
3648.000000	6.277629
3646.000000	6.294772
3644.000000	6.297807
3642.000000	6.284078
3640.000000	6.266965
3638.000000	6.250415
3636.000000	6.231399
3634.000000	6.208332
3632.000000	6.168970
3630.000000	6.129575
3628.000000	6.129833
3626.000000	6.147759
3624.000000	6.145421
3622.000000	6.122173
3620.000000	6.099480
3618.000000	6.092493
3616.000000	6.086134
3614.000000	6.073143
3612.000000	6.060322
3610.000000	6.049042
3608.000000	6.047282
3606.000000	6.051594
3604.000000	6.047482
3602.000000	6.035779
3600.000000	6.025677
3598.000000	6.017304
3596.000000	6.009522
3594.000000	6.003055
3592.000000	5.991025
3590.000000	5.973749
3588.000000	5.964703
3586.000000	5.967706
3584.000000	5.971719
3582.000000	5.970466
3580.000000	5.967439
3578.000000	5.964251
3576.000000	5.959870
3574.000000	5.953860
3572.000000	5.944501
3570.000000	5.929837
3568.000000	5.917241
3566.000000	5.916490
3564.000000	5.922214
3562.000000	5.925872
3560.000000	5.925094
3558.000000	5.921643
3556.000000	5.916696
3554.000000	5.911428
3552.000000	5.908922
3550.000000	5.904792
3548.000000	5.896819
3546.000000	5.891934
3544.000000	5.891834
3542.000000	5.891168
3540.000000	5.888196
3538.000000	5.883781
3536.000000	5.879239
3534.000000	5.874341
3532.000000	5.868528
3530.000000	5.863434
3528.000000	5.859281
3526.000000	5.853420
3524.000000	5.846281
3522.000000	5.841989
3520.000000	5.839453
3518.000000	5.836408
3516.000000	5.831654
3514.000000	5.824531
3512.000000	5.817142
3510.000000	5.811496
3508.000000	5.805286
3506.000000	5.797413
3504.000000	5.790898
3502.000000	5.785819
3500.000000	5.779738
3498.000000	5.773253
3496.000000	5.768153
3494.000000	5.762059
3492.000000	5.753971
3490.000000	5.745168
3488.000000	5.737265
3486.000000	5.731411
3484.000000	5.724875
3482.000000	5.718732
3480.000000	5.716315
3478.000000	5.714235
3476.000000	5.710592
3474.000000	5.706037
3472.000000	5.702782
3470.000000	5.703047
3468.000000	5.702545
3466.000000	5.699665
3464.000000	5.699168
3462.000000	5.699643
3460.000000	5.698036
3458.000000	5.695923
3456.000000	5.694672
3454.000000	5.695631
3452.000000	5.696629
3450.000000	5.694061
3448.000000	5.690757
3446.000000	5.690805
3444.000000	5.691746
3442.000000	5.692343
3440.000000	5.694759
3438.000000	5.698706
3436.000000	5.703619
3434.000000	5.710694
3432.000000	5.718552
3430.000000	5.726904
3428.000000	5.736227
3426.000000	5.744341
3424.000000	5.748204
3422.000000	5.752458
3420.000000	5.760168
3418.000000	5.766343
3416.000000	5.769971
3414.000000	5.773285
3412.000000	5.777758
3410.000000	5.780476
3408.000000	5.780104
3406.000000	5.782598
3404.000000	5.787117
3402.000000	5.788955
3400.000000	5.791607
3398.000000	5.795715
3396.000000	5.800109
3394.000000	5.804242
3392.000000	5.807034
3390.000000	5.811400
3388.000000	5.816809
3386.000000	5.819643
3384.000000	5.821545
3382.000000	5.824405
3380.000000	5.828657
3378.000000	5.832044
3376.000000	5.833662
3374.000000	5.835165
3372.000000	5.837832
3370.000000	5.841578
3368.000000	5.842520
3366.000000	5.842482
3364.000000	5.845230
3362.000000	5.849798
3360.000000	5.853978
3358.000000	5.854407
3356.000000	5.855462
3354.000000	5.860053
3352.000000	5.862561
3350.000000	5.863542
3348.000000	5.866968
3346.000000	5.872329
3344.000000	5.873816
3342.000000	5.873654
3340.000000	5.876059
3338.000000	5.877879
3336.000000	5.880427
3334.000000	5.882314
3332.000000	5.882132
3330.000000	5.884809
3328.000000	5.888785
3326.000000	5.890368
3324.000000	5.891379
3322.000000	5.894309
3320.000000	5.897465
3318.000000	5.899183
3316.000000	5.899240
3314.000000	5.898743
3312.000000	5.901039
3310.000000	5.903684
3308.000000	5.903739
3306.000000	5.903858
3304.000000	5.906003
3302.000000	5.908158
3300.000000	5.910033
3298.000000	5.911301
3296.000000	5.912603
3294.000000	5.915094
3292.000000	5.915028
3290.000000	5.915104
3288.000000	5.916652
3286.000000	5.918872
3284.000000	5.921591
3282.000000	5.923717
3280.000000	5.926130
3278.000000	5.930278
3276.000000	5.933244
3274.000000	5.932549
3272.000000	5.932941
3270.000000	5.935614
3268.000000	5.936887
3266.000000	5.938188
3264.000000	5.941442
3262.000000	5.944085
3260.000000	5.945270
3258.000000	5.945991
3256.000000	5.948741
3254.000000	5.953586
3252.000000	5.959748
3250.000000	5.962630
3248.000000	5.961757
3246.000000	5.962894
3244.000000	5.966801
3242.000000	5.970373
3240.000000	5.972651
3238.000000	5.975294
3236.000000	5.978614
3234.000000	5.980319
3232.000000	5.983047
3230.000000	5.988891
3228.000000	5.993409
3226.000000	5.996716
3224.000000	5.998704
3222.000000	5.998574
3220.000000	6.000528
3218.000000	6.004474
3216.000000	6.007004
3214.000000	6.009485
3212.000000	6.014585
3210.000000	6.019105
3208.000000	6.020806
3206.000000	6.023013
3204.000000	6.025842
3202.000000	6.030751
3200.000000	6.037332
3198.000000	6.041498
3196.000000	6.046316
3194.000000	6.051992
3192.000000	6.056016
3190.000000	6.059775
3188.000000	6.063934
3186.000000	6.069794
3184.000000	6.075603
3182.000000	6.079248
3180.000000	6.082950
3178.000000	6.088788
3176.000000	6.094764
3174.000000	6.097851
3172.000000	6.102346
3170.000000	6.108991
3168.000000	6.114629
3166.000000	6.117846
3164.000000	6.121265
3162.000000	6.127246
3160.000000	6.133227
3158.000000	6.138980
3156.000000	6.143327
3154.000000	6.148967
3152.000000	6.154959
3150.000000	6.157167
3148.000000	6.162741
3146.000000	6.170008
3144.000000	6.174267
3142.000000	6.178562
3140.000000	6.182783
3138.000000	6.187535
3136.000000	6.193808
3134.000000	6.199060
3132.000000	6.201130
3130.000000	6.204349
3128.000000	6.209407
3126.000000	6.213068
3124.000000	6.216093
3122.000000	6.219311
3120.000000	6.223016
3118.000000	6.225953
3116.000000	6.229460
3114.000000	6.234759
3112.000000	6.238479
3110.000000	6.239914
3108.000000	6.243955
3106.000000	6.249117
3104.000000	6.252019
3102.000000	6.257129
3100.000000	6.263536
3098.000000	6.268289
3096.000000	6.273001
3094.000000	6.276569
3092.000000	6.279882
3090.000000	6.283461
3088.000000	6.286710
3086.000000	6.291254
3084.000000	6.296199
3082.000000	6.299283
3080.000000	6.300820
3078.000000	6.304769
3076.000000	6.307852
3074.000000	6.308719
3072.000000	6.309550
3070.000000	6.309876
3068.000000	6.312087
3066.000000	6.314520
3064.000000	6.317528
3062.000000	6.322167
3060.000000	6.325789
3058.000000	6.328164
3056.000000	6.333062
3054.000000	6.340343
3052.000000	6.346786
3050.000000	6.350850
3048.000000	6.352325
3046.000000	6.356018
3044.000000	6.361507
3042.000000	6.362911
3040.000000	6.362626
3038.000000	6.365830
3036.000000	6.369642
3034.000000	6.369658
3032.000000	6.368927
3030.000000	6.367632
3028.000000	6.362479
3026.000000	6.355620
3024.000000	6.347976
3022.000000	6.341607
3020.000000	6.339461
3018.000000	6.346124
3016.000000	6.359894
3014.000000	6.376886
3012.000000	6.397765
3010.000000	6.418230
3008.000000	6.434760
3006.000000	6.445563
3004.000000	6.453707
3002.000000	6.463357
3000.000000	6.469514
2998.000000	6.473142
2996.000000	6.478154
2994.000000	6.482194
2992.000000	6.483886
2990.000000	6.486880
2988.000000	6.489119
2986.000000	6.487872
2984.000000	6.484635
2982.000000	6.478497
2980.000000	6.471826
2978.000000	6.463376
2976.000000	6.448263
2974.000000	6.425743
2972.000000	6.398877
2970.000000	6.366861
2968.000000	6.330832
2966.000000	6.298270
2964.000000	6.274932
2962.000000	6.267949
2960.000000	6.277670
2958.000000	6.294598
2956.000000	6.312807
2954.000000	6.331680
2952.000000	6.349947
2950.000000	6.360628
2948.000000	6.358950
2946.000000	6.349092
2944.000000	6.331930
2942.000000	6.306883
2940.000000	6.275029
2938.000000	6.243135
2936.000000	6.215547
2934.000000	6.191212
2932.000000	6.167580
2930.000000	6.142617
2928.000000	6.123926
2926.000000	6.118586
2924.000000	6.131267
2922.000000	6.166600
2920.000000	6.222131
2918.000000	6.285834
2916.000000	6.349563
2914.000000	6.410167
2912.000000	6.461034
2910.000000	6.503089
2908.000000	6.538596
2906.000000	6.565878
2904.000000	6.590927
2902.000000	6.617468
2900.000000	6.642424
2898.000000	6.663711
2896.000000	6.682934
2894.000000	6.703871
2892.000000	6.725381
2890.000000	6.743607
2888.000000	6.759057
2886.000000	6.771793
2884.000000	6.780114
2882.000000	6.785940
2880.000000	6.790940
2878.000000	6.792508
2876.000000	6.787300
2874.000000	6.775792
2872.000000	6.760152
2870.000000	6.738724
2868.000000	6.707930
2866.000000	6.669804
2864.000000	6.634746
2862.000000	6.617681
2860.000000	6.620793
2858.000000	6.636841
2856.000000	6.661552
2854.000000	6.691742
2852.000000	6.728497
2850.000000	6.772219
2848.000000	6.819867
2846.000000	6.866861
2844.000000	6.909697
2842.000000	6.942916
2840.000000	6.967560
2838.000000	6.991215
2836.000000	7.012025
2834.000000	7.027001
2832.000000	7.039336
2830.000000	7.053135
2828.000000	7.066820
2826.000000	7.078008
2824.000000	7.087980
2822.000000	7.096530
2820.000000	7.105313
2818.000000	7.114721
2816.000000	7.124940
2814.000000	7.132440
2812.000000	7.137679
2810.000000	7.145799
2808.000000	7.152926
2806.000000	7.157329
2804.000000	7.163496
2802.000000	7.169793
2800.000000	7.173919
2798.000000	7.179625
2796.000000	7.185984
2794.000000	7.190851
2792.000000	7.197465
2790.000000	7.204861
2788.000000	7.211408
2786.000000	7.218418
2784.000000	7.226045
2782.000000	7.234133
2780.000000	7.241433
2778.000000	7.247605
2776.000000	7.253532
2774.000000	7.259076
2772.000000	7.263983
2770.000000	7.270682
2768.000000	7.277982
2766.000000	7.281589
2764.000000	7.285498
2762.000000	7.291778
2760.000000	7.297739
2758.000000	7.302800
2756.000000	7.307761
2754.000000	7.311128
2752.000000	7.313980
2750.000000	7.318134
2748.000000	7.320313
2746.000000	7.323660
2744.000000	7.328145
2742.000000	7.329671
2740.000000	7.332736
2738.000000	7.338699
2736.000000	7.343125
2734.000000	7.346555
2732.000000	7.349205
2730.000000	7.349540
2728.000000	7.351891
2726.000000	7.356650
2724.000000	7.357587
2722.000000	7.358039
2720.000000	7.363066
2718.000000	7.368924
2716.000000	7.370391
2714.000000	7.368340
2712.000000	7.370818
2710.000000	7.375600
2708.000000	7.376494
2706.000000	7.376742
2704.000000	7.379574
2702.000000	7.382742
2700.000000	7.386548
2698.000000	7.390210
2696.000000	7.391397
2694.000000	7.393460
2692.000000	7.397456
2690.000000	7.400340
2688.000000	7.402972
2686.000000	7.404494
2684.000000	7.403945
2682.000000	7.405679
2680.000000	7.409294
2678.000000	7.411197
2676.000000	7.411060
2674.000000	7.410151
2672.000000	7.409021
2670.000000	7.411066
2668.000000	7.414595
2666.000000	7.413737
2664.000000	7.413733
2662.000000	7.416697
2660.000000	7.417559
2658.000000	7.416846
2656.000000	7.418053
2654.000000	7.418682
2652.000000	7.417818
2650.000000	7.417363
2648.000000	7.419226
2646.000000	7.422600
2644.000000	7.423196
2642.000000	7.422275
2640.000000	7.421965
2638.000000	7.422126
2636.000000	7.423207
2634.000000	7.422409
2632.000000	7.420337
2630.000000	7.420670
2628.000000	7.422996
2626.000000	7.421924
2624.000000	7.417813
2622.000000	7.418318
2620.000000	7.420524
2618.000000	7.422924
2616.000000	7.422514
2614.000000	7.416322
2612.000000	7.411998
2610.000000	7.413350
2608.000000	7.414712
2606.000000	7.412050
2604.000000	7.406956
2602.000000	7.402969
2600.000000	7.402234
2598.000000	7.402393
2596.000000	7.399462
2594.000000	7.395119
2592.000000	7.392411
2590.000000	7.393659
2588.000000	7.395339
2586.000000	7.393630
2584.000000	7.392610
2582.000000	7.394241
2580.000000	7.395634
2578.000000	7.395264
2576.000000	7.396444
2574.000000	7.397170
2572.000000	7.397007
2570.000000	7.397895
2568.000000	7.397144
2566.000000	7.394644
2564.000000	7.391711
2562.000000	7.388929
2560.000000	7.388446
2558.000000	7.388521
2556.000000	7.386747
2554.000000	7.383826
2552.000000	7.380527
2550.000000	7.377405
2548.000000	7.374880
2546.000000	7.373798
2544.000000	7.371024
2542.000000	7.366162
2540.000000	7.362364
2538.000000	7.360605
2536.000000	7.358263
2534.000000	7.354116
2532.000000	7.350765
2530.000000	7.347286
2528.000000	7.344337
2526.000000	7.342071
2524.000000	7.340650
2522.000000	7.336130
2520.000000	7.332096
2518.000000	7.330935
2516.000000	7.327548
2514.000000	7.322381
2512.000000	7.319143
2510.000000	7.316170
2508.000000	7.312198
2506.000000	7.309074
2504.000000	7.306231
2502.000000	7.302987
2500.000000	7.302953
2498.000000	7.302207
2496.000000	7.298076
2494.000000	7.293345
2492.000000	7.291334
2490.000000	7.290531
2488.000000	7.288488
2486.000000	7.286458
2484.000000	7.286241
2482.000000	7.286436
2480.000000	7.285919
2478.000000	7.283936
2476.000000	7.280690
2474.000000	7.277492
2472.000000	7.276271
2470.000000	7.275281
2468.000000	7.272871
2466.000000	7.270365
2464.000000	7.268801
2462.000000	7.266554
2460.000000	7.265770
2458.000000	7.265928
2456.000000	7.264326
2454.000000	7.265637
2452.000000	7.267098
2450.000000	7.264818
2448.000000	7.264421
2446.000000	7.265964
2444.000000	7.266449
2442.000000	7.267397
2440.000000	7.267948
2438.000000	7.266158
2436.000000	7.267683
2434.000000	7.271785
2432.000000	7.273013
2430.000000	7.273005
2428.000000	7.274197
2426.000000	7.276397
2424.000000	7.277600
2422.000000	7.278627
2420.000000	7.283010
2418.000000	7.287015
2416.000000	7.289799
2414.000000	7.291907
2412.000000	7.295557
2410.000000	7.300031
2408.000000	7.304836
2406.000000	7.307914
2404.000000	7.308162
2402.000000	7.309015
2400.000000	7.312372
2398.000000	7.313983
2396.000000	7.314464
2394.000000	7.315492
2392.000000	7.318299
2390.000000	7.320374
2388.000000	7.320695
2386.000000	7.320718
2384.000000	7.320379
2382.000000	7.318250
2380.000000	7.313189
2378.000000	7.304633
2376.000000	7.292653
2374.000000	7.277895
2372.000000	7.261791
2370.000000	7.244228
2368.000000	7.226061
2366.000000	7.211829
2364.000000	7.204608
2362.000000	7.200874
2360.000000	7.202355
2358.000000	7.212547
2356.000000	7.228684
2354.000000	7.248836
2352.000000	7.270820
2350.000000	7.287131
2348.000000	7.282331
2346.000000	7.257327
2344.000000	7.226770
2342.000000	7.198639
2340.000000	7.181922
2338.000000	7.185441
2336.000000	7.199309
2334.000000	7.206039
2332.000000	7.209394
2330.000000	7.217216
2328.000000	7.226162
2326.000000	7.232099
2324.000000	7.236356
2322.000000	7.242311
2320.000000	7.248899
2318.000000	7.256502
2316.000000	7.262674
2314.000000	7.264280
2312.000000	7.266265
2310.000000	7.267528
2308.000000	7.268501
2306.000000	7.269341
2304.000000	7.268495
2302.000000	7.269437
2300.000000	7.271985
2298.000000	7.270059
2296.000000	7.264814
2294.000000	7.261812
2292.000000	7.263523
2290.000000	7.265692
2288.000000	7.264056
2286.000000	7.260098
2284.000000	7.259845
2282.000000	7.259970
2280.000000	7.258004
2278.000000	7.255887
2276.000000	7.251342
2274.000000	7.247586
2272.000000	7.247832
2270.000000	7.246840
2268.000000	7.242105
2266.000000	7.237665
2264.000000	7.235406
2262.000000	7.233178
2260.000000	7.230745
2258.000000	7.229178
2256.000000	7.228354
2254.000000	7.227164
2252.000000	7.225470
2250.000000	7.223241
2248.000000	7.223057
2246.000000	7.223245
2244.000000	7.222304
2242.000000	7.221602
2240.000000	7.220273
2238.000000	7.220144
2236.000000	7.220427
2234.000000	7.218804
2232.000000	7.218447
2230.000000	7.219529
2228.000000	7.220724
2226.000000	7.218755
2224.000000	7.216859
2222.000000	7.217600
2220.000000	7.218764
2218.000000	7.217848
2216.000000	7.216514
2214.000000	7.218671
2212.000000	7.220428
2210.000000	7.218197
2208.000000	7.217219
2206.000000	7.218275
2204.000000	7.218044
2202.000000	7.217570
2200.000000	7.219867
2198.000000	7.220033
2196.000000	7.218110
2194.000000	7.217476
2192.000000	7.217133
2190.000000	7.219216
2188.000000	7.220704
2186.000000	7.217302
2184.000000	7.216481
2182.000000	7.221599
2180.000000	7.225396
2178.000000	7.221504
2176.000000	7.217361
2174.000000	7.218042
2172.000000	7.221938
2170.000000	7.224315
2168.000000	7.223132
2166.000000	7.224839
2164.000000	7.229019
2162.000000	7.230894
2160.000000	7.230223
2158.000000	7.227549
2156.000000	7.228205
2154.000000	7.233405
2152.000000	7.235572
2150.000000	7.234480
2148.000000	7.237470
2146.000000	7.241770
2144.000000	7.243067
2142.000000	7.245576
2140.000000	7.249151
2138.000000	7.250093
2136.000000	7.250463
2134.000000	7.251857
2132.000000	7.254655
2130.000000	7.259583
2128.000000	7.262164
2126.000000	7.262504
2124.000000	7.265060
2122.000000	7.268231
2120.000000	7.271844
2118.000000	7.275127
2116.000000	7.279363
2114.000000	7.284419
2112.000000	7.286769
2110.000000	7.288931
2108.000000	7.293972
2106.000000	7.302481
2104.000000	7.306868
2102.000000	7.307384
2100.000000	7.311434
2098.000000	7.317667
2096.000000	7.324305
2094.000000	7.327310
2092.000000	7.329432
2090.000000	7.336003
2088.000000	7.342833
2086.000000	7.347288
2084.000000	7.352530
2082.000000	7.358391
2080.000000	7.364708
2078.000000	7.371080
2076.000000	7.374313
2074.000000	7.377715
2072.000000	7.386604
2070.000000	7.393791
2068.000000	7.397278
2066.000000	7.401203
2064.000000	7.408651
2062.000000	7.416293
2060.000000	7.420685
2058.000000	7.424296
2056.000000	7.432279
2054.000000	7.441790
2052.000000	7.444392
2050.000000	7.447723
2048.000000	7.456945
2046.000000	7.463722
2044.000000	7.468227
2042.000000	7.471585
2040.000000	7.476385
2038.000000	7.483672
2036.000000	7.490073
2034.000000	7.491138
2032.000000	7.493821
2030.000000	7.500965
2028.000000	7.506916
2026.000000	7.512850
2024.000000	7.517558
2022.000000	7.520036
2020.000000	7.524176
2018.000000	7.527528
2016.000000	7.533068
2014.000000	7.541902
2012.000000	7.548353
2010.000000	7.550595
2008.000000	7.556137
2006.000000	7.561981
2004.000000	7.563097
2002.000000	7.563769
2000.000000	7.567339
1998.000000	7.573354
1996.000000	7.578361
1994.000000	7.575775
1992.000000	7.573485
1990.000000	7.580477
1988.000000	7.588145
1986.000000	7.589968
1984.000000	7.589637
1982.000000	7.589933
1980.000000	7.593105
1978.000000	7.596612
1976.000000	7.594494
1974.000000	7.594110
1972.000000	7.597314
1970.000000	7.594307
1968.000000	7.588962
1966.000000	7.590747
1964.000000	7.593513
1962.000000	7.591003
1960.000000	7.582560
1958.000000	7.580838
1956.000000	7.591684
1954.000000	7.597916
1952.000000	7.592663
1950.000000	7.585748
1948.000000	7.585298
1946.000000	7.585404
1944.000000	7.580431
1942.000000	7.577146
1940.000000	7.580479
1938.000000	7.585778
1936.000000	7.585907
1934.000000	7.579139
1932.000000	7.578025
1930.000000	7.578510
1928.000000	7.574994
1926.000000	7.569333
1924.000000	7.561850
1922.000000	7.559269
1920.000000	7.553968
1918.000000	7.543698
1916.000000	7.545986
1914.000000	7.551108
1912.000000	7.546439
1910.000000	7.536824
1908.000000	7.533979
1906.000000	7.528848
1904.000000	7.523405
1902.000000	7.521929
1900.000000	7.517297
1898.000000	7.512195
1896.000000	7.513049
1894.000000	7.509230
1892.000000	7.497407
1890.000000	7.490597
1888.000000	7.494478
1886.000000	7.494579
1884.000000	7.491619
1882.000000	7.489905
1880.000000	7.489099
1878.000000	7.482611
1876.000000	7.475307
1874.000000	7.472876
1872.000000	7.465530
1870.000000	7.445759
1868.000000	7.441620
1866.000000	7.451127
1864.000000	7.454620
1862.000000	7.456311
1860.000000	7.453386
1858.000000	7.444208
1856.000000	7.442584
1854.000000	7.440784
1852.000000	7.433256
1850.000000	7.421956
1848.000000	7.409423
1846.000000	7.384650
1844.000000	7.371473
1842.000000	7.386863
1840.000000	7.392779
1838.000000	7.390383
1836.000000	7.383648
1834.000000	7.369027
1832.000000	7.349040
1830.000000	7.333977
1828.000000	7.333974
1826.000000	7.325392
1824.000000	7.320207
1822.000000	7.322301
1820.000000	7.318243
1818.000000	7.306283
1816.000000	7.296051
1814.000000	7.285534
1812.000000	7.270411
1810.000000	7.259621
1808.000000	7.252272
1806.000000	7.240716
1804.000000	7.227186
1802.000000	7.206185
1800.000000	7.188976
1798.000000	7.183775
1796.000000	7.173620
1794.000000	7.135057
1792.000000	7.112757
1790.000000	7.126735
1788.000000	7.127790
1786.000000	7.107791
1784.000000	7.088855
1782.000000	7.074226
1780.000000	7.067768
1778.000000	7.058596
1776.000000	7.026827
1774.000000	6.975886
1772.000000	6.956560
1770.000000	6.967195
1768.000000	6.967160
1766.000000	6.970886
1764.000000	6.954752
1762.000000	6.931717
1760.000000	6.924114
1758.000000	6.903474
1756.000000	6.889670
1754.000000	6.874635
1752.000000	6.828821
1750.000000	6.804760
1748.000000	6.804880
1746.000000	6.803299
1744.000000	6.789467
1742.000000	6.757016
1740.000000	6.730586
1738.000000	6.726127
1736.000000	6.668263
1734.000000	6.619893
1732.000000	6.662511
1730.000000	6.694119
1728.000000	6.698335
1726.000000	6.693100
1724.000000	6.679296
1722.000000	6.663645
1720.000000	6.615488
1718.000000	6.552427
1716.000000	6.566404
1714.000000	6.608250
1712.000000	6.624242
1710.000000	6.615561
1708.000000	6.590086
1706.000000	6.565240
1704.000000	6.554360
1702.000000	6.491098
1700.000000	6.450445
1698.000000	6.464736
1696.000000	6.462562
1694.000000	6.515310
1692.000000	6.552131
1690.000000	6.544638
1688.000000	6.517024
1686.000000	6.436351
1684.000000	6.410510
1682.000000	6.478615
1680.000000	6.517042
1678.000000	6.503386
1676.000000	6.464109
1674.000000	6.465032
1672.000000	6.464395
1670.000000	6.444697
1668.000000	6.457696
1666.000000	6.465937
1664.000000	6.445712
1662.000000	6.444011
1660.000000	6.452499
1658.000000	6.436046
1656.000000	6.363760
1654.000000	6.249114
1652.000000	6.269111
1650.000000	6.354646
1648.000000	6.338921
1646.000000	6.326715
1644.000000	6.362235
1642.000000	6.372424
1640.000000	6.355201
1638.000000	6.310382
1636.000000	6.260460
1634.000000	6.280143
1632.000000	6.311486
1630.000000	6.302715
1628.000000	6.280299
1626.000000	6.250502
1624.000000	6.206429
1622.000000	6.186819
1620.000000	6.162706
1618.000000	6.092083
1616.000000	6.060343
1614.000000	6.070487
1612.000000	6.043095
1610.000000	6.001400
1608.000000	5.976194
1606.000000	5.977535
1604.000000	5.998660
1602.000000	6.018224
1600.000000	6.028033
1598.000000	6.041402
1596.000000	6.053557
1594.000000	6.059412
1592.000000	6.062321
1590.000000	6.063575
1588.000000	6.063345
1586.000000	6.060081
1584.000000	6.051407
1582.000000	6.046206
1580.000000	6.038849
1578.000000	5.989649
1576.000000	5.958532
1574.000000	6.000456
1572.000000	6.009241
1570.000000	5.988918
1568.000000	5.987455
1566.000000	5.981774
1564.000000	5.965235
1562.000000	5.895181
1560.000000	5.784715
1558.000000	5.791105
1556.000000	5.865542
1554.000000	5.910778
1552.000000	5.947071
1550.000000	5.960755
1548.000000	5.970276
1546.000000	5.970519
1544.000000	5.948031
1542.000000	5.901496
1540.000000	5.888274
1538.000000	5.968834
1536.000000	6.032687
1534.000000	6.031102
1532.000000	6.048109
1530.000000	6.067105
1528.000000	6.059722
1526.000000	6.038193
1524.000000	6.010919
1522.000000	5.978627
1520.000000	5.990595
1518.000000	6.003529
1516.000000	5.994374
1514.000000	5.989902
1512.000000	5.981579
1510.000000	5.946789
1508.000000	5.855651
1506.000000	5.812766
1504.000000	5.836510
1502.000000	5.773924
1500.000000	5.595502
1498.000000	5.370757
1496.000000	5.213858
1494.000000	5.199997
1492.000000	5.274144
1490.000000	5.393110
1488.000000	5.529473
1486.000000	5.638704
1484.000000	5.703728
1482.000000	5.734178
1480.000000	5.753938
1478.000000	5.749939
1476.000000	5.720667
1474.000000	5.681850
1472.000000	5.677852
1470.000000	5.698383
1468.000000	5.680450
1466.000000	5.634722
1464.000000	5.613174
1462.000000	5.602478
1460.000000	5.531209
1458.000000	5.408109
1456.000000	5.345472
1454.000000	5.335093
1452.000000	5.306168
1450.000000	5.307512
1448.000000	5.366213
1446.000000	5.437550
1444.000000	5.469245
1442.000000	5.472552
1440.000000	5.464414
1438.000000	5.442320
1436.000000	5.446730
1434.000000	5.473776
1432.000000	5.472143
1430.000000	5.473619
1428.000000	5.484728
1426.000000	5.481271
1424.000000	5.468121
1422.000000	5.452256
1420.000000	5.422538
1418.000000	5.419432
1416.000000	5.424400
1414.000000	5.417003
1412.000000	5.401923
1410.000000	5.367735
1408.000000	5.309043
1406.000000	5.252695
1404.000000	5.229332
1402.000000	5.234928
1400.000000	5.248007
1398.000000	5.275634
1396.000000	5.304294
1394.000000	5.329203
1392.000000	5.349276
1390.000000	5.349582
1388.000000	5.332396
1386.000000	5.314661
1384.000000	5.304755
1382.000000	5.311950
1380.000000	5.323319
1378.000000	5.325143
1376.000000	5.311307
1374.000000	5.296496
1372.000000	5.300082
1370.000000	5.300915
1368.000000	5.287313
1366.000000	5.269377
1364.000000	5.256228
1362.000000	5.252472
1360.000000	5.246484
1358.000000	5.232803
1356.000000	5.221950
1354.000000	5.216163
1352.000000	5.201449
1350.000000	5.182268
1348.000000	5.168974
1346.000000	5.158549
1344.000000	5.143325
1342.000000	5.116274
1340.000000	5.096008
1338.000000	5.098278
1336.000000	5.099852
1334.000000	5.085105
1332.000000	5.070732
1330.000000	5.064908
1328.000000	5.054273
1326.000000	5.035569
1324.000000	5.012195
1322.000000	4.994802
1320.000000	4.983669
1318.000000	4.961365
1316.000000	4.931154
1314.000000	4.911897
1312.000000	4.900819
1310.000000	4.880015
1308.000000	4.850540
1306.000000	4.827185
1304.000000	4.810065
1302.000000	4.789698
1300.000000	4.762029
1298.000000	4.738672
1296.000000	4.719518
1294.000000	4.693802
1292.000000	4.663178
1290.000000	4.635249
1288.000000	4.612596
1286.000000	4.588665
1284.000000	4.555303
1282.000000	4.522495
1280.000000	4.497983
1278.000000	4.469455
1276.000000	4.424653
1274.000000	4.375620
1272.000000	4.328890
1270.000000	4.271389
1268.000000	4.184611
1266.000000	4.077105
1264.000000	3.979287
1262.000000	3.908613
1260.000000	3.869221
1258.000000	3.865359
1256.000000	3.894970
1254.000000	3.929567
1252.000000	3.932889
1250.000000	3.907011
1248.000000	3.880099
1246.000000	3.860152
1244.000000	3.827017
1242.000000	3.781384
1240.000000	3.743993
1238.000000	3.717882
1236.000000	3.692330
1234.000000	3.655018
1232.000000	3.614765
1230.000000	3.588965
1228.000000	3.568321
1226.000000	3.535112
1224.000000	3.493257
1222.000000	3.463983
1220.000000	3.439187
1218.000000	3.401533
1216.000000	3.358569
1214.000000	3.325370
1212.000000	3.298275
1210.000000	3.266697
1208.000000	3.229594
1206.000000	3.201985
1204.000000	3.184224
1202.000000	3.156774
1200.000000	3.119030
1198.000000	3.092556
1196.000000	3.074807
1194.000000	3.048134
1192.000000	3.009798
1190.000000	2.975862
1188.000000	2.950141
1186.000000	2.921861
1184.000000	2.875445
1182.000000	2.816248
1180.000000	2.783661
1178.000000	2.774676
1176.000000	2.754334
1174.000000	2.722368
1172.000000	2.691952
1170.000000	2.669045
1168.000000	2.636506
1166.000000	2.592231
1164.000000	2.560866
1162.000000	2.541810
1160.000000	2.505124
1158.000000	2.462842
1156.000000	2.440107
1154.000000	2.419938
1152.000000	2.388878
1150.000000	2.351682
1148.000000	2.318887
1146.000000	2.298612
1144.000000	2.273750
1142.000000	2.238489
1140.000000	2.212712
1138.000000	2.200951
1136.000000	2.181791
1134.000000	2.147571
1132.000000	2.110282
1130.000000	2.087565
1128.000000	2.071797
1126.000000	2.035282
1124.000000	1.992363
1122.000000	1.968182
1120.000000	1.946165
1118.000000	1.910141
1116.000000	1.868129
1114.000000	1.835713
1112.000000	1.814242
1110.000000	1.784871
1108.000000	1.738893
1106.000000	1.706139
1104.000000	1.690563
1102.000000	1.662545
1100.000000	1.624647
1098.000000	1.593943
1096.000000	1.571596
1094.000000	1.551951
1092.000000	1.520641
1090.000000	1.488350
1088.000000	1.473306
1086.000000	1.460007
1084.000000	1.428762
1082.000000	1.396947
1080.000000	1.379902
1078.000000	1.366591
1076.000000	1.346853
1074.000000	1.323575
1072.000000	1.312053
1070.000000	1.307101
1068.000000	1.288213
1066.000000	1.266102
1064.000000	1.255350
1062.000000	1.246137
1060.000000	1.226385
1058.000000	1.201568
1056.000000	1.176776
1054.000000	1.150827
1052.000000	1.117662
1050.000000	1.087249
1048.000000	1.084574
1046.000000	1.103702
1044.000000	1.107833
1042.000000	1.087526
1040.000000	1.071476
1038.000000	1.069454
1036.000000	1.059602
1034.000000	1.035092
1032.000000	1.010628
1030.000000	1.001184
1028.000000	0.996218
1026.000000	0.973047
1024.000000	0.937337
1022.000000	0.921859
1020.000000	0.923192
1018.000000	0.902418
1016.000000	0.870690
1014.000000	0.861535
1012.000000	0.862809
1010.000000	0.853124
1008.000000	0.831034
1006.000000	0.817065
1004.000000	0.814167
1002.000000	0.803890
1000.000000	0.782669
