PE IR       SUBTECH     SPECTRUM    ASCII       PEDS        4.00        
   -1
TE109A_059_125K_BG.ASC
20/04/21
17:45:13.00
20/04/21
17:45:13.00
Administrator
TE109A, Tuesday, April 21 2020, 059.
1000.000000
#HDR
-1
-1
#GR
cm-1
EGY
1.0
0.0
6000.000000
-2.000000
2501
8
104.764909
10.893287
#DATA
6000.000000	15.537917
5998.000000	15.567978
5996.000000	15.598844
5994.000000	15.630607
5992.000000	15.662524
5990.000000	15.694389
5988.000000	15.726143
5986.000000	15.757924
5984.000000	15.790453
5982.000000	15.822889
5980.000000	15.854322
5978.000000	15.886425
5976.000000	15.918799
5974.000000	15.950826
5972.000000	15.983288
5970.000000	16.016005
5968.000000	16.049549
5966.000000	16.081915
5964.000000	16.113578
5962.000000	16.144555
5960.000000	16.177367
5958.000000	16.210025
5956.000000	16.243018
5954.000000	16.278216
5952.000000	16.311546
5950.000000	16.343598
5948.000000	16.374054
5946.000000	16.405005
5944.000000	16.438516
5942.000000	16.472633
5940.000000	16.506872
5938.000000	16.539985
5936.000000	16.571382
5934.000000	16.603605
5932.000000	16.636883
5930.000000	16.669417
5928.000000	16.700134
5926.000000	16.732665
5924.000000	16.767683
5922.000000	16.804119
5920.000000	16.839342
5918.000000	16.872151
5916.000000	16.905642
5914.000000	16.940438
5912.000000	16.977908
5910.000000	17.015929
5908.000000	17.050738
5906.000000	17.084526
5904.000000	17.119314
5902.000000	17.154381
5900.000000	17.189894
5898.000000	17.225240
5896.000000	17.262351
5894.000000	17.299236
5892.000000	17.333129
5890.000000	17.367190
5888.000000	17.401492
5886.000000	17.436144
5884.000000	17.469491
5882.000000	17.502419
5880.000000	17.538122
5878.000000	17.574124
5876.000000	17.610245
5874.000000	17.646365
5872.000000	17.681383
5870.000000	17.717875
5868.000000	17.754088
5866.000000	17.789441
5864.000000	17.823718
5862.000000	17.857244
5860.000000	17.892517
5858.000000	17.930118
5856.000000	17.966768
5854.000000	18.003059
5852.000000	18.039731
5850.000000	18.077760
5848.000000	18.116722
5846.000000	18.154862
5844.000000	18.193659
5842.000000	18.233952
5840.000000	18.274241
5838.000000	18.314668
5836.000000	18.354482
5834.000000	18.394178
5832.000000	18.434645
5830.000000	18.475134
5828.000000	18.515478
5826.000000	18.555258
5824.000000	18.594271
5822.000000	18.635027
5820.000000	18.675828
5818.000000	18.716016
5816.000000	18.754489
5814.000000	18.792487
5812.000000	18.831376
5810.000000	18.870868
5808.000000	18.909051
5806.000000	18.948205
5804.000000	18.987561
5802.000000	19.027632
5800.000000	19.066771
5798.000000	19.104787
5796.000000	19.144803
5794.000000	19.185761
5792.000000	19.226095
5790.000000	19.265751
5788.000000	19.305069
5786.000000	19.345139
5784.000000	19.385559
5782.000000	19.425695
5780.000000	19.465052
5778.000000	19.503894
5776.000000	19.542645
5774.000000	19.583825
5772.000000	19.626073
5770.000000	19.668213
5768.000000	19.710794
5766.000000	19.752908
5764.000000	19.793932
5762.000000	19.833799
5760.000000	19.873072
5758.000000	19.914422
5756.000000	19.955426
5754.000000	19.996461
5752.000000	20.036968
5750.000000	20.076249
5748.000000	20.116153
5746.000000	20.157795
5744.000000	20.199209
5742.000000	20.238546
5740.000000	20.275712
5738.000000	20.313971
5736.000000	20.354481
5734.000000	20.394101
5732.000000	20.432615
5730.000000	20.471231
5728.000000	20.510611
5726.000000	20.549626
5724.000000	20.589559
5722.000000	20.631037
5720.000000	20.672025
5718.000000	20.713094
5716.000000	20.754356
5714.000000	20.798151
5712.000000	20.841420
5710.000000	20.883827
5708.000000	20.927455
5706.000000	20.970999
5704.000000	21.013786
5702.000000	21.055052
5700.000000	21.097270
5698.000000	21.140647
5696.000000	21.184453
5694.000000	21.229170
5692.000000	21.273750
5690.000000	21.317527
5688.000000	21.361755
5686.000000	21.406171
5684.000000	21.450182
5682.000000	21.493653
5680.000000	21.537707
5678.000000	21.584037
5676.000000	21.629444
5674.000000	21.672724
5672.000000	21.716508
5670.000000	21.761987
5668.000000	21.806301
5666.000000	21.849324
5664.000000	21.890500
5662.000000	21.933256
5660.000000	21.977409
5658.000000	22.021270
5656.000000	22.066245
5654.000000	22.111531
5652.000000	22.156598
5650.000000	22.202447
5648.000000	22.247828
5646.000000	22.293009
5644.000000	22.336609
5642.000000	22.379944
5640.000000	22.423824
5638.000000	22.468078
5636.000000	22.510624
5634.000000	22.554222
5632.000000	22.598511
5630.000000	22.644155
5628.000000	22.687934
5626.000000	22.731072
5624.000000	22.775247
5622.000000	22.820348
5620.000000	22.865281
5618.000000	22.909671
5616.000000	22.954063
5614.000000	22.997566
5612.000000	23.040923
5610.000000	23.084814
5608.000000	23.129194
5606.000000	23.174723
5604.000000	23.221872
5602.000000	23.269120
5600.000000	23.313918
5598.000000	23.355710
5596.000000	23.398010
5594.000000	23.442697
5592.000000	23.488781
5590.000000	23.535915
5588.000000	23.581809
5586.000000	23.626800
5584.000000	23.672333
5582.000000	23.718280
5580.000000	23.763555
5578.000000	23.808588
5576.000000	23.855275
5574.000000	23.902992
5572.000000	23.950187
5570.000000	23.996889
5568.000000	24.042868
5566.000000	24.089181
5564.000000	24.135564
5562.000000	24.183564
5560.000000	24.230618
5558.000000	24.275523
5556.000000	24.319913
5554.000000	24.365433
5552.000000	24.410738
5550.000000	24.456512
5548.000000	24.503830
5546.000000	24.551274
5544.000000	24.597886
5542.000000	24.644153
5540.000000	24.691035
5538.000000	24.737152
5536.000000	24.781152
5534.000000	24.827365
5532.000000	24.875849
5530.000000	24.923404
5528.000000	24.969646
5526.000000	25.016004
5524.000000	25.061647
5522.000000	25.105881
5520.000000	25.151474
5518.000000	25.200406
5516.000000	25.249708
5514.000000	25.298137
5512.000000	25.345095
5510.000000	25.388905
5508.000000	25.431577
5506.000000	25.476521
5504.000000	25.524615
5502.000000	25.572608
5500.000000	25.619406
5498.000000	25.666416
5496.000000	25.709702
5494.000000	25.752784
5492.000000	25.797610
5490.000000	25.847921
5488.000000	25.900311
5486.000000	25.952528
5484.000000	26.002720
5482.000000	26.051311
5480.000000	26.096071
5478.000000	26.137875
5476.000000	26.181449
5474.000000	26.231348
5472.000000	26.285135
5470.000000	26.335897
5468.000000	26.383269
5466.000000	26.428868
5464.000000	26.472745
5462.000000	26.517946
5460.000000	26.566929
5458.000000	26.620042
5456.000000	26.672624
5454.000000	26.720936
5452.000000	26.765846
5450.000000	26.807214
5448.000000	26.848402
5446.000000	26.894070
5444.000000	26.943088
5442.000000	26.995332
5440.000000	27.045791
5438.000000	27.092759
5436.000000	27.137977
5434.000000	27.183474
5432.000000	27.228931
5430.000000	27.276613
5428.000000	27.329733
5426.000000	27.388584
5424.000000	27.444491
5422.000000	27.494930
5420.000000	27.541103
5418.000000	27.579516
5416.000000	27.612891
5414.000000	27.649967
5412.000000	27.698437
5410.000000	27.756218
5408.000000	27.814569
5406.000000	27.869592
5404.000000	27.921232
5402.000000	27.972026
5400.000000	28.019389
5398.000000	28.060347
5396.000000	28.099560
5394.000000	28.147424
5392.000000	28.203412
5390.000000	28.258112
5388.000000	28.306760
5386.000000	28.355251
5384.000000	28.408383
5382.000000	28.459995
5380.000000	28.502380
5378.000000	28.541408
5376.000000	28.588105
5374.000000	28.647136
5372.000000	28.707779
5370.000000	28.763590
5368.000000	28.811958
5366.000000	28.857814
5364.000000	28.905698
5362.000000	28.958399
5360.000000	29.010592
5358.000000	29.054576
5356.000000	29.093029
5354.000000	29.137137
5352.000000	29.189929
5350.000000	29.243324
5348.000000	29.285493
5346.000000	29.325313
5344.000000	29.372248
5342.000000	29.422709
5340.000000	29.470783
5338.000000	29.521373
5336.000000	29.579463
5334.000000	29.638866
5332.000000	29.690690
5330.000000	29.736994
5328.000000	29.784396
5326.000000	29.837750
5324.000000	29.895615
5322.000000	29.950812
5320.000000	30.000219
5318.000000	30.047115
5316.000000	30.095467
5314.000000	30.145907
5312.000000	30.194160
5310.000000	30.239377
5308.000000	30.287138
5306.000000	30.340117
5304.000000	30.395354
5302.000000	30.447579
5300.000000	30.497476
5298.000000	30.548616
5296.000000	30.599122
5294.000000	30.644707
5292.000000	30.687837
5290.000000	30.735849
5288.000000	30.788452
5286.000000	30.842491
5284.000000	30.895811
5282.000000	30.949352
5280.000000	31.001399
5278.000000	31.054000
5276.000000	31.106442
5274.000000	31.156224
5272.000000	31.203635
5270.000000	31.251219
5268.000000	31.295458
5266.000000	31.336527
5264.000000	31.382452
5262.000000	31.440093
5260.000000	31.500839
5258.000000	31.554173
5256.000000	31.602899
5254.000000	31.655022
5252.000000	31.704528
5250.000000	31.748250
5248.000000	31.791843
5246.000000	31.843288
5244.000000	31.902166
5242.000000	31.962817
5240.000000	32.021360
5238.000000	32.072717
5236.000000	32.119757
5234.000000	32.167284
5232.000000	32.217588
5230.000000	32.266509
5228.000000	32.311678
5226.000000	32.359015
5224.000000	32.413823
5222.000000	32.471174
5220.000000	32.525057
5218.000000	32.577054
5216.000000	32.629843
5214.000000	32.682308
5212.000000	32.728819
5210.000000	32.768582
5208.000000	32.809821
5206.000000	32.864268
5204.000000	32.928937
5202.000000	32.991211
5200.000000	33.043624
5198.000000	33.091786
5196.000000	33.143532
5194.000000	33.200583
5192.000000	33.255718
5190.000000	33.306543
5188.000000	33.356724
5186.000000	33.410006
5184.000000	33.464085
5182.000000	33.518066
5180.000000	33.572232
5178.000000	33.627843
5176.000000	33.682322
5174.000000	33.734919
5172.000000	33.787036
5170.000000	33.840763
5168.000000	33.893312
5166.000000	33.946132
5164.000000	34.000760
5162.000000	34.055747
5160.000000	34.107500
5158.000000	34.159036
5156.000000	34.213044
5154.000000	34.267998
5152.000000	34.321766
5150.000000	34.375484
5148.000000	34.428735
5146.000000	34.481183
5144.000000	34.533225
5142.000000	34.586969
5140.000000	34.640450
5138.000000	34.693015
5136.000000	34.744381
5134.000000	34.796202
5132.000000	34.849564
5130.000000	34.904308
5128.000000	34.958662
5126.000000	35.011572
5124.000000	35.064282
5122.000000	35.116843
5120.000000	35.169961
5118.000000	35.224792
5116.000000	35.279215
5114.000000	35.331874
5112.000000	35.384637
5110.000000	35.439462
5108.000000	35.494894
5106.000000	35.548882
5104.000000	35.601998
5102.000000	35.655800
5100.000000	35.709749
5098.000000	35.764116
5096.000000	35.818674
5094.000000	35.873510
5092.000000	35.927970
5090.000000	35.984093
5088.000000	36.041925
5086.000000	36.100297
5084.000000	36.156189
5082.000000	36.210157
5080.000000	36.262774
5078.000000	36.317099
5076.000000	36.372886
5074.000000	36.429387
5072.000000	36.484278
5070.000000	36.538793
5068.000000	36.594475
5066.000000	36.651936
5064.000000	36.708261
5062.000000	36.762587
5060.000000	36.817155
5058.000000	36.872145
5056.000000	36.926444
5054.000000	36.980775
5052.000000	37.035503
5050.000000	37.090937
5048.000000	37.145483
5046.000000	37.201129
5044.000000	37.256642
5042.000000	37.312168
5040.000000	37.366661
5038.000000	37.421718
5036.000000	37.477215
5034.000000	37.531582
5032.000000	37.584452
5030.000000	37.639308
5028.000000	37.695079
5026.000000	37.749891
5024.000000	37.804203
5022.000000	37.859780
5020.000000	37.915012
5018.000000	37.969805
5016.000000	38.024763
5014.000000	38.080268
5012.000000	38.136050
5010.000000	38.192438
5008.000000	38.248544
5006.000000	38.304877
5004.000000	38.361369
5002.000000	38.417849
5000.000000	38.473525
4998.000000	38.529962
4996.000000	38.587596
4994.000000	38.645488
4992.000000	38.703010
4990.000000	38.760333
4988.000000	38.816970
4986.000000	38.872686
4984.000000	38.928981
4982.000000	38.987125
4980.000000	39.045023
4978.000000	39.102162
4976.000000	39.159689
4974.000000	39.217120
4972.000000	39.272680
4970.000000	39.328417
4968.000000	39.385220
4966.000000	39.441808
4964.000000	39.498304
4962.000000	39.556003
4960.000000	39.612633
4958.000000	39.667320
4956.000000	39.722295
4954.000000	39.779407
4952.000000	39.836155
4950.000000	39.890736
4948.000000	39.944511
4946.000000	40.001243
4944.000000	40.059153
4942.000000	40.116321
4940.000000	40.171522
4938.000000	40.226119
4936.000000	40.281252
4934.000000	40.337640
4932.000000	40.394146
4930.000000	40.449579
4928.000000	40.505006
4926.000000	40.562407
4924.000000	40.620334
4922.000000	40.675725
4920.000000	40.729337
4918.000000	40.785640
4916.000000	40.843231
4914.000000	40.900613
4912.000000	40.957937
4910.000000	41.014678
4908.000000	41.071338
4906.000000	41.128872
4904.000000	41.187052
4902.000000	41.244916
4900.000000	41.303750
4898.000000	41.361476
4896.000000	41.417573
4894.000000	41.476035
4892.000000	41.536992
4890.000000	41.596823
4888.000000	41.653689
4886.000000	41.711362
4884.000000	41.770362
4882.000000	41.828491
4880.000000	41.885323
4878.000000	41.942769
4876.000000	41.999828
4874.000000	42.056823
4872.000000	42.114650
4870.000000	42.173621
4868.000000	42.231824
4866.000000	42.291308
4864.000000	42.350154
4862.000000	42.407366
4860.000000	42.463666
4858.000000	42.520691
4856.000000	42.576667
4854.000000	42.632133
4852.000000	42.687491
4850.000000	42.743944
4848.000000	42.801256
4846.000000	42.858871
4844.000000	42.915101
4842.000000	42.971566
4840.000000	43.028218
4838.000000	43.086036
4836.000000	43.145042
4834.000000	43.203540
4832.000000	43.260446
4830.000000	43.316653
4828.000000	43.372080
4826.000000	43.428832
4824.000000	43.486596
4822.000000	43.543731
4820.000000	43.598712
4818.000000	43.655768
4816.000000	43.714786
4814.000000	43.774693
4812.000000	43.833661
4810.000000	43.892226
4808.000000	43.950222
4806.000000	44.009220
4804.000000	44.068569
4802.000000	44.127675
4800.000000	44.185950
4798.000000	44.244867
4796.000000	44.303918
4794.000000	44.363488
4792.000000	44.422532
4790.000000	44.481241
4788.000000	44.540298
4786.000000	44.601524
4784.000000	44.661906
4782.000000	44.720015
4780.000000	44.777674
4778.000000	44.836844
4776.000000	44.895747
4774.000000	44.955028
4772.000000	45.014006
4770.000000	45.072123
4768.000000	45.129307
4766.000000	45.186939
4764.000000	45.245742
4762.000000	45.304832
4760.000000	45.362685
4758.000000	45.420300
4756.000000	45.478601
4754.000000	45.536243
4752.000000	45.593296
4750.000000	45.650693
4748.000000	45.708156
4746.000000	45.766307
4744.000000	45.824154
4742.000000	45.881650
4740.000000	45.938811
4738.000000	45.996013
4736.000000	46.052451
4734.000000	46.110282
4732.000000	46.168998
4730.000000	46.227794
4728.000000	46.286466
4726.000000	46.346580
4724.000000	46.405513
4722.000000	46.462666
4720.000000	46.519719
4718.000000	46.579634
4716.000000	46.641574
4714.000000	46.702708
4712.000000	46.761953
4710.000000	46.821955
4708.000000	46.883687
4706.000000	46.945553
4704.000000	47.007740
4702.000000	47.071099
4700.000000	47.133449
4698.000000	47.194456
4696.000000	47.256156
4694.000000	47.317883
4692.000000	47.377525
4690.000000	47.437829
4688.000000	47.499723
4686.000000	47.561157
4684.000000	47.620446
4682.000000	47.679424
4680.000000	47.739530
4678.000000	47.801503
4676.000000	47.862272
4674.000000	47.921380
4672.000000	47.981062
4670.000000	48.043184
4668.000000	48.104307
4666.000000	48.164130
4664.000000	48.223842
4662.000000	48.284340
4660.000000	48.344755
4658.000000	48.406487
4656.000000	48.467296
4654.000000	48.526177
4652.000000	48.584523
4650.000000	48.645323
4648.000000	48.707323
4646.000000	48.767309
4644.000000	48.825473
4642.000000	48.886654
4640.000000	48.949025
4638.000000	49.009405
4636.000000	49.068606
4634.000000	49.127827
4632.000000	49.185514
4630.000000	49.244416
4628.000000	49.305620
4626.000000	49.367616
4624.000000	49.428222
4622.000000	49.489072
4620.000000	49.550628
4618.000000	49.613634
4616.000000	49.676068
4614.000000	49.738316
4612.000000	49.801031
4610.000000	49.864892
4608.000000	49.927570
4606.000000	49.990303
4604.000000	50.054072
4602.000000	50.119257
4600.000000	50.184629
4598.000000	50.249894
4596.000000	50.313299
4594.000000	50.376955
4592.000000	50.441405
4590.000000	50.505672
4588.000000	50.567793
4586.000000	50.631371
4584.000000	50.696706
4582.000000	50.761703
4580.000000	50.824040
4578.000000	50.885604
4576.000000	50.947833
4574.000000	51.011591
4572.000000	51.074938
4570.000000	51.136488
4568.000000	51.197405
4566.000000	51.259710
4564.000000	51.322591
4562.000000	51.385747
4560.000000	51.448428
4558.000000	51.511394
4556.000000	51.574347
4554.000000	51.637543
4552.000000	51.700419
4550.000000	51.763775
4548.000000	51.825952
4546.000000	51.886290
4544.000000	51.945597
4542.000000	52.006841
4540.000000	52.069081
4538.000000	52.130852
4536.000000	52.192846
4534.000000	52.256040
4532.000000	52.318787
4530.000000	52.382263
4528.000000	52.445682
4526.000000	52.507254
4524.000000	52.567951
4522.000000	52.632015
4520.000000	52.696897
4518.000000	52.760432
4516.000000	52.824391
4514.000000	52.889179
4512.000000	52.952144
4510.000000	53.015676
4508.000000	53.080651
4506.000000	53.144924
4504.000000	53.209139
4502.000000	53.276172
4500.000000	53.343732
4498.000000	53.408601
4496.000000	53.471263
4494.000000	53.535128
4492.000000	53.600014
4490.000000	53.664864
4488.000000	53.729678
4486.000000	53.794799
4484.000000	53.858932
4482.000000	53.922655
4480.000000	53.986910
4478.000000	54.051588
4476.000000	54.114874
4474.000000	54.176753
4472.000000	54.238223
4470.000000	54.300193
4468.000000	54.362290
4466.000000	54.425738
4464.000000	54.489519
4462.000000	54.551530
4460.000000	54.611297
4458.000000	54.671271
4456.000000	54.732590
4454.000000	54.795829
4452.000000	54.858457
4450.000000	54.919229
4448.000000	54.980716
4446.000000	55.044465
4444.000000	55.106348
4442.000000	55.166405
4440.000000	55.228103
4438.000000	55.291987
4436.000000	55.354807
4434.000000	55.417105
4432.000000	55.479073
4430.000000	55.541894
4428.000000	55.605980
4426.000000	55.670088
4424.000000	55.731361
4422.000000	55.791940
4420.000000	55.854012
4418.000000	55.919231
4416.000000	55.984385
4414.000000	56.047534
4412.000000	56.111062
4410.000000	56.177547
4408.000000	56.243146
4406.000000	56.306991
4404.000000	56.369094
4402.000000	56.431297
4400.000000	56.495401
4398.000000	56.560770
4396.000000	56.624122
4394.000000	56.686501
4392.000000	56.749195
4390.000000	56.812975
4388.000000	56.874926
4386.000000	56.935054
4384.000000	56.995262
4382.000000	57.056234
4380.000000	57.116423
4378.000000	57.177017
4376.000000	57.237251
4374.000000	57.298501
4372.000000	57.359723
4370.000000	57.419901
4368.000000	57.479427
4366.000000	57.539287
4364.000000	57.598728
4362.000000	57.659131
4360.000000	57.719365
4358.000000	57.780097
4356.000000	57.841462
4354.000000	57.904566
4352.000000	57.968604
4350.000000	58.031247
4348.000000	58.092438
4346.000000	58.156136
4344.000000	58.221190
4342.000000	58.285042
4340.000000	58.347113
4338.000000	58.410127
4336.000000	58.473142
4334.000000	58.535872
4332.000000	58.599747
4330.000000	58.664930
4328.000000	58.728965
4326.000000	58.792637
4324.000000	58.858126
4322.000000	58.926540
4320.000000	58.994512
4318.000000	59.061674
4316.000000	59.128148
4314.000000	59.194353
4312.000000	59.261422
4310.000000	59.330334
4308.000000	59.398074
4306.000000	59.463666
4304.000000	59.528871
4302.000000	59.594905
4300.000000	59.660194
4298.000000	59.725686
4296.000000	59.791060
4294.000000	59.854508
4292.000000	59.916723
4290.000000	59.980513
4288.000000	60.044245
4286.000000	60.106436
4284.000000	60.166831
4282.000000	60.226448
4280.000000	60.286068
4278.000000	60.346594
4276.000000	60.406662
4274.000000	60.466157
4272.000000	60.525055
4270.000000	60.584495
4268.000000	60.644259
4266.000000	60.704297
4264.000000	60.764557
4262.000000	60.826330
4260.000000	60.889346
4258.000000	60.953881
4256.000000	61.018265
4254.000000	61.080218
4252.000000	61.140234
4250.000000	61.202662
4248.000000	61.267765
4246.000000	61.333661
4244.000000	61.397767
4242.000000	61.460779
4240.000000	61.523462
4238.000000	61.587270
4236.000000	61.651868
4234.000000	61.717622
4232.000000	61.782618
4230.000000	61.846966
4228.000000	61.912540
4226.000000	61.978601
4224.000000	62.041348
4222.000000	62.103931
4220.000000	62.168099
4218.000000	62.233503
4216.000000	62.298985
4214.000000	62.364301
4212.000000	62.429715
4210.000000	62.495949
4208.000000	62.561974
4206.000000	62.627946
4204.000000	62.692705
4202.000000	62.758541
4200.000000	62.826047
4198.000000	62.893990
4196.000000	62.963006
4194.000000	63.033871
4192.000000	63.103335
4190.000000	63.171749
4188.000000	63.239040
4186.000000	63.304723
4184.000000	63.369644
4182.000000	63.435551
4180.000000	63.502219
4178.000000	63.569156
4176.000000	63.634055
4174.000000	63.697565
4172.000000	63.761923
4170.000000	63.827464
4168.000000	63.891928
4166.000000	63.955428
4164.000000	64.018556
4162.000000	64.083028
4160.000000	64.148183
4158.000000	64.211780
4156.000000	64.274292
4154.000000	64.339527
4152.000000	64.405397
4150.000000	64.469792
4148.000000	64.534613
4146.000000	64.600528
4144.000000	64.666893
4142.000000	64.734486
4140.000000	64.800046
4138.000000	64.863919
4136.000000	64.928350
4134.000000	64.993611
4132.000000	65.060585
4130.000000	65.129852
4128.000000	65.196600
4126.000000	65.260440
4124.000000	65.324921
4122.000000	65.391678
4120.000000	65.458823
4118.000000	65.525951
4116.000000	65.591453
4114.000000	65.656474
4112.000000	65.723326
4110.000000	65.789570
4108.000000	65.851051
4106.000000	65.912589
4104.000000	65.977529
4102.000000	66.044618
4100.000000	66.110091
4098.000000	66.173271
4096.000000	66.236471
4094.000000	66.301737
4092.000000	66.367795
4090.000000	66.434725
4088.000000	66.503160
4086.000000	66.574137
4084.000000	66.644771
4082.000000	66.712908
4080.000000	66.779989
4078.000000	66.847960
4076.000000	66.913967
4074.000000	66.979175
4072.000000	67.044989
4070.000000	67.109891
4068.000000	67.173991
4066.000000	67.239392
4064.000000	67.304714
4062.000000	67.369773
4060.000000	67.434424
4058.000000	67.499201
4056.000000	67.563759
4054.000000	67.629209
4052.000000	67.694682
4050.000000	67.760470
4048.000000	67.824312
4046.000000	67.885258
4044.000000	67.948441
4042.000000	68.017601
4040.000000	68.087172
4038.000000	68.154482
4036.000000	68.220636
4034.000000	68.287897
4032.000000	68.356233
4030.000000	68.424210
4028.000000	68.489527
4026.000000	68.554922
4024.000000	68.623414
4022.000000	68.693973
4020.000000	68.762600
4018.000000	68.831844
4016.000000	68.901921
4014.000000	68.970701
4012.000000	69.038141
4010.000000	69.104823
4008.000000	69.173383
4006.000000	69.245524
4004.000000	69.315783
4002.000000	69.383891
4000.000000	69.450245
3998.000000	69.514294
3996.000000	69.577040
3994.000000	69.640675
3992.000000	69.704523
3990.000000	69.770504
3988.000000	69.838227
3986.000000	69.903927
3984.000000	69.966992
3982.000000	70.031424
3980.000000	70.096475
3978.000000	70.157852
3976.000000	70.214853
3974.000000	70.274721
3972.000000	70.338243
3970.000000	70.402009
3968.000000	70.466998
3966.000000	70.529941
3964.000000	70.584669
3962.000000	70.641185
3960.000000	70.705757
3958.000000	70.771898
3956.000000	70.835039
3954.000000	70.890894
3952.000000	70.933828
3950.000000	70.976812
3948.000000	71.039340
3946.000000	71.106010
3944.000000	71.159423
3942.000000	71.229506
3940.000000	71.320993
3938.000000	71.400878
3936.000000	71.445908
3934.000000	71.463644
3932.000000	71.506393
3930.000000	71.597859
3928.000000	71.683358
3926.000000	71.737979
3924.000000	71.797563
3922.000000	71.855975
3920.000000	71.883630
3918.000000	71.926382
3916.000000	72.038926
3914.000000	72.178910
3912.000000	72.280271
3910.000000	72.334125
3908.000000	72.312968
3906.000000	72.203098
3904.000000	72.114495
3902.000000	72.149919
3900.000000	72.304833
3898.000000	72.529607
3896.000000	72.698699
3894.000000	72.706093
3892.000000	72.676891
3890.000000	72.745044
3888.000000	72.764838
3886.000000	72.748462
3884.000000	72.856717
3882.000000	72.977772
3880.000000	73.083190
3878.000000	73.212597
3876.000000	73.260046
3874.000000	73.210694
3872.000000	73.090665
3870.000000	73.064353
3868.000000	73.218212
3866.000000	73.345838
3864.000000	73.441554
3862.000000	73.607485
3860.000000	73.747787
3858.000000	73.610453
3856.000000	73.063239
3854.000000	72.692668
3852.000000	73.078245
3850.000000	73.774268
3848.000000	74.165619
3846.000000	74.238116
3844.000000	74.197025
3842.000000	74.097883
3840.000000	73.891208
3838.000000	73.805684
3836.000000	74.040308
3834.000000	74.341242
3832.000000	74.532792
3830.000000	74.681359
3828.000000	74.783184
3826.000000	74.818359
3824.000000	74.716484
3822.000000	74.582025
3820.000000	74.611353
3818.000000	74.624915
3816.000000	74.689243
3814.000000	75.028520
3812.000000	75.329770
3810.000000	75.312939
3808.000000	75.166878
3806.000000	75.172661
3804.000000	75.143924
3802.000000	75.055459
3800.000000	75.250688
3798.000000	75.558063
3796.000000	75.751382
3794.000000	75.911162
3792.000000	76.030754
3790.000000	76.098023
3788.000000	76.137850
3786.000000	76.170552
3784.000000	76.213953
3782.000000	76.233152
3780.000000	76.248022
3778.000000	76.343911
3776.000000	76.470826
3774.000000	76.517360
3772.000000	76.461483
3770.000000	76.431949
3768.000000	76.508281
3766.000000	76.621208
3764.000000	76.725430
3762.000000	76.756461
3760.000000	76.742186
3758.000000	76.791664
3756.000000	76.760186
3754.000000	76.442570
3752.000000	76.095286
3750.000000	76.130453
3748.000000	76.303790
3746.000000	76.201093
3744.000000	76.320422
3742.000000	76.883941
3740.000000	77.194005
3738.000000	77.071403
3736.000000	76.951725
3734.000000	77.040955
3732.000000	77.282846
3730.000000	77.563638
3728.000000	77.703775
3726.000000	77.743502
3724.000000	77.808652
3722.000000	77.904574
3720.000000	78.021363
3718.000000	78.126050
3716.000000	78.114047
3714.000000	77.925616
3712.000000	77.807447
3710.000000	77.976846
3708.000000	78.268120
3706.000000	78.450533
3704.000000	78.474730
3702.000000	78.482693
3700.000000	78.591491
3698.000000	78.713691
3696.000000	78.763606
3694.000000	78.706396
3692.000000	78.487187
3690.000000	78.234297
3688.000000	78.324842
3686.000000	78.736483
3684.000000	79.022623
3682.000000	79.066875
3680.000000	78.943552
3678.000000	78.620365
3676.000000	78.389543
3674.000000	78.504340
3672.000000	78.596518
3670.000000	78.691472
3668.000000	79.034659
3666.000000	79.354061
3664.000000	79.483491
3662.000000	79.518105
3660.000000	79.474806
3658.000000	79.339045
3656.000000	79.294545
3654.000000	79.317658
3652.000000	79.107147
3650.000000	78.859345
3648.000000	78.990803
3646.000000	79.373232
3644.000000	79.646691
3642.000000	79.747766
3640.000000	79.783077
3638.000000	79.796272
3636.000000	79.780450
3634.000000	79.716683
3632.000000	79.485966
3630.000000	79.188729
3628.000000	79.272636
3626.000000	79.644836
3624.000000	79.830723
3622.000000	79.739383
3620.000000	79.599984
3618.000000	79.630363
3616.000000	79.721307
3614.000000	79.717271
3612.000000	79.665358
3610.000000	79.629521
3608.000000	79.699116
3606.000000	79.855596
3604.000000	79.944887
3602.000000	79.940346
3600.000000	79.918991
3598.000000	79.901617
3596.000000	79.881388
3594.000000	79.890708
3592.000000	79.881687
3590.000000	79.769437
3588.000000	79.681052
3586.000000	79.762821
3584.000000	79.900886
3582.000000	79.961729
3580.000000	79.966483
3578.000000	79.964393
3576.000000	79.963483
3574.000000	79.962344
3572.000000	79.928741
3570.000000	79.810530
3568.000000	79.689862
3566.000000	79.714362
3564.000000	79.823675
3562.000000	79.887865
3560.000000	79.909664
3558.000000	79.921925
3556.000000	79.913608
3554.000000	79.881902
3552.000000	79.862100
3550.000000	79.852339
3548.000000	79.812011
3546.000000	79.779399
3544.000000	79.799550
3542.000000	79.834323
3540.000000	79.840270
3538.000000	79.818854
3536.000000	79.798142
3534.000000	79.788730
3532.000000	79.763777
3530.000000	79.714899
3528.000000	79.664783
3526.000000	79.622967
3524.000000	79.587908
3522.000000	79.569017
3520.000000	79.553946
3518.000000	79.529143
3516.000000	79.499046
3514.000000	79.461716
3512.000000	79.412441
3510.000000	79.360902
3508.000000	79.318565
3506.000000	79.265400
3504.000000	79.196901
3502.000000	79.150395
3500.000000	79.121188
3498.000000	79.076544
3496.000000	79.022605
3494.000000	78.973807
3492.000000	78.924470
3490.000000	78.869769
3488.000000	78.818536
3486.000000	78.778127
3484.000000	78.740191
3482.000000	78.706906
3480.000000	78.691719
3478.000000	78.689705
3476.000000	78.689237
3474.000000	78.693344
3472.000000	78.703180
3470.000000	78.714097
3468.000000	78.730373
3466.000000	78.757983
3464.000000	78.792710
3462.000000	78.830226
3460.000000	78.870441
3458.000000	78.908641
3456.000000	78.941299
3454.000000	78.969860
3452.000000	78.994107
3450.000000	79.005806
3448.000000	79.010730
3446.000000	79.037080
3444.000000	79.084937
3442.000000	79.142709
3440.000000	79.215014
3438.000000	79.301929
3436.000000	79.404536
3434.000000	79.525459
3432.000000	79.661531
3430.000000	79.802824
3428.000000	79.942290
3426.000000	80.075641
3424.000000	80.197004
3422.000000	80.307381
3420.000000	80.416529
3418.000000	80.524183
3416.000000	80.620601
3414.000000	80.704688
3412.000000	80.777415
3410.000000	80.841975
3408.000000	80.902883
3406.000000	80.959893
3404.000000	81.011958
3402.000000	81.062050
3400.000000	81.121817
3398.000000	81.198094
3396.000000	81.277766
3394.000000	81.345591
3392.000000	81.411368
3390.000000	81.488565
3388.000000	81.563458
3386.000000	81.625411
3384.000000	81.685103
3382.000000	81.745407
3380.000000	81.800823
3378.000000	81.852694
3376.000000	81.901181
3374.000000	81.947153
3372.000000	81.987436
3370.000000	82.022939
3368.000000	82.063672
3366.000000	82.111522
3364.000000	82.161832
3362.000000	82.209583
3360.000000	82.254231
3358.000000	82.298847
3356.000000	82.342751
3354.000000	82.384309
3352.000000	82.424212
3350.000000	82.466344
3348.000000	82.511275
3346.000000	82.553854
3344.000000	82.593332
3342.000000	82.634611
3340.000000	82.674660
3338.000000	82.711477
3336.000000	82.750604
3334.000000	82.792761
3332.000000	82.834883
3330.000000	82.873156
3328.000000	82.907948
3326.000000	82.943055
3324.000000	82.981075
3322.000000	83.020828
3320.000000	83.059246
3318.000000	83.095339
3316.000000	83.129984
3314.000000	83.163683
3312.000000	83.196490
3310.000000	83.225932
3308.000000	83.252333
3306.000000	83.283890
3304.000000	83.327317
3302.000000	83.375227
3300.000000	83.416260
3298.000000	83.450304
3296.000000	83.483602
3294.000000	83.517228
3292.000000	83.551121
3290.000000	83.591297
3288.000000	83.634529
3286.000000	83.673815
3284.000000	83.711273
3282.000000	83.750243
3280.000000	83.788599
3278.000000	83.823160
3276.000000	83.858025
3274.000000	83.896907
3272.000000	83.937220
3270.000000	83.980315
3268.000000	84.028028
3266.000000	84.073957
3264.000000	84.116992
3262.000000	84.160267
3260.000000	84.204956
3258.000000	84.249838
3256.000000	84.292661
3254.000000	84.337756
3252.000000	84.387906
3250.000000	84.436357
3248.000000	84.480522
3246.000000	84.524895
3244.000000	84.575525
3242.000000	84.630700
3240.000000	84.684677
3238.000000	84.734103
3236.000000	84.779750
3234.000000	84.825351
3232.000000	84.875773
3230.000000	84.929341
3228.000000	84.981617
3226.000000	85.034866
3224.000000	85.085451
3222.000000	85.130231
3220.000000	85.176252
3218.000000	85.227439
3216.000000	85.277834
3214.000000	85.325559
3212.000000	85.375520
3210.000000	85.429067
3208.000000	85.488434
3206.000000	85.551383
3204.000000	85.617136
3202.000000	85.686400
3200.000000	85.754759
3198.000000	85.825190
3196.000000	85.901087
3194.000000	85.975935
3192.000000	86.050765
3190.000000	86.125035
3188.000000	86.194939
3186.000000	86.262785
3184.000000	86.333793
3182.000000	86.405370
3180.000000	86.473209
3178.000000	86.541887
3176.000000	86.616034
3174.000000	86.692099
3172.000000	86.767734
3170.000000	86.840691
3168.000000	86.913816
3166.000000	86.990233
3164.000000	87.066544
3162.000000	87.144040
3160.000000	87.222178
3158.000000	87.298677
3156.000000	87.374859
3154.000000	87.449392
3152.000000	87.525620
3150.000000	87.608456
3148.000000	87.690229
3146.000000	87.766359
3144.000000	87.839949
3142.000000	87.912248
3140.000000	87.983700
3138.000000	88.055763
3136.000000	88.126803
3134.000000	88.192763
3132.000000	88.260113
3130.000000	88.329536
3128.000000	88.395794
3126.000000	88.458985
3124.000000	88.517079
3122.000000	88.569564
3120.000000	88.622432
3118.000000	88.676724
3116.000000	88.732137
3114.000000	88.791807
3112.000000	88.850285
3110.000000	88.901515
3108.000000	88.954005
3106.000000	89.012256
3104.000000	89.070299
3102.000000	89.129973
3100.000000	89.196003
3098.000000	89.262736
3096.000000	89.327262
3094.000000	89.392468
3092.000000	89.456483
3090.000000	89.517082
3088.000000	89.575967
3086.000000	89.631381
3084.000000	89.680659
3082.000000	89.724665
3080.000000	89.764131
3078.000000	89.802723
3076.000000	89.841836
3074.000000	89.872378
3072.000000	89.891000
3070.000000	89.901798
3068.000000	89.910185
3066.000000	89.928762
3064.000000	89.965030
3062.000000	90.013024
3060.000000	90.066565
3058.000000	90.123186
3056.000000	90.185978
3054.000000	90.250463
3052.000000	90.307240
3050.000000	90.357922
3048.000000	90.406526
3046.000000	90.449281
3044.000000	90.482141
3042.000000	90.509156
3040.000000	90.534771
3038.000000	90.554172
3036.000000	90.566379
3034.000000	90.569503
3032.000000	90.559299
3030.000000	90.528383
3028.000000	90.462830
3026.000000	90.358247
3024.000000	90.232130
3022.000000	90.117010
3020.000000	90.054010
3018.000000	90.084274
3016.000000	90.228576
3014.000000	90.465448
3012.000000	90.748754
3010.000000	91.024506
3008.000000	91.246595
3006.000000	91.404063
3004.000000	91.514437
3002.000000	91.595437
3000.000000	91.656124
2998.000000	91.698741
2996.000000	91.729726
2994.000000	91.751527
2992.000000	91.763571
2990.000000	91.767376
2988.000000	91.754760
2986.000000	91.719566
2984.000000	91.663079
2982.000000	91.579729
2980.000000	91.461235
2978.000000	91.300191
2976.000000	91.080434
2974.000000	90.781285
2972.000000	90.391995
2970.000000	89.917527
2968.000000	89.403669
2966.000000	88.929696
2964.000000	88.582205
2962.000000	88.416529
2960.000000	88.431265
2958.000000	88.569507
2956.000000	88.759863
2954.000000	88.944496
2952.000000	89.086469
2950.000000	89.155872
2948.000000	89.120847
2946.000000	88.959773
2944.000000	88.670073
2942.000000	88.263692
2940.000000	87.777707
2938.000000	87.273336
2936.000000	86.808634
2934.000000	86.394847
2932.000000	86.001600
2930.000000	85.617444
2928.000000	85.295266
2926.000000	85.137411
2924.000000	85.248687
2922.000000	85.669152
2920.000000	86.341415
2918.000000	87.152845
2916.000000	87.997309
2914.000000	88.791619
2912.000000	89.475719
2910.000000	90.021954
2908.000000	90.447449
2906.000000	90.792066
2904.000000	91.092542
2902.000000	91.365312
2900.000000	91.617943
2898.000000	91.855859
2896.000000	92.080679
2894.000000	92.294924
2892.000000	92.499159
2890.000000	92.684713
2888.000000	92.845621
2886.000000	92.975019
2884.000000	93.064525
2882.000000	93.108704
2880.000000	93.108085
2878.000000	93.057664
2876.000000	92.950227
2874.000000	92.776877
2872.000000	92.525293
2870.000000	92.169964
2868.000000	91.689998
2866.000000	91.123879
2864.000000	90.593683
2862.000000	90.247663
2860.000000	90.174038
2858.000000	90.341431
2856.000000	90.643645
2854.000000	90.999249
2852.000000	91.408120
2850.000000	91.913992
2848.000000	92.516245
2846.000000	93.130912
2844.000000	93.665880
2842.000000	94.092457
2840.000000	94.427710
2838.000000	94.696430
2836.000000	94.918166
2834.000000	95.100536
2832.000000	95.255575
2830.000000	95.391304
2828.000000	95.512740
2826.000000	95.625179
2824.000000	95.728405
2822.000000	95.821334
2820.000000	95.906591
2818.000000	95.984998
2816.000000	96.056370
2814.000000	96.121143
2812.000000	96.179806
2810.000000	96.234713
2808.000000	96.288384
2806.000000	96.337766
2804.000000	96.385604
2802.000000	96.431359
2800.000000	96.474976
2798.000000	96.516400
2796.000000	96.559366
2794.000000	96.603435
2792.000000	96.652298
2790.000000	96.710119
2788.000000	96.780942
2786.000000	96.861772
2784.000000	96.947365
2782.000000	97.030485
2780.000000	97.105845
2778.000000	97.173236
2776.000000	97.235331
2774.000000	97.295079
2772.000000	97.352417
2770.000000	97.405822
2768.000000	97.457932
2766.000000	97.507617
2764.000000	97.557379
2762.000000	97.605417
2760.000000	97.651679
2758.000000	97.696999
2756.000000	97.742072
2754.000000	97.785677
2752.000000	97.827490
2750.000000	97.866263
2748.000000	97.902817
2746.000000	97.940196
2744.000000	97.979811
2742.000000	98.017146
2740.000000	98.052785
2738.000000	98.089477
2736.000000	98.125405
2734.000000	98.159586
2732.000000	98.195395
2730.000000	98.230840
2728.000000	98.266212
2726.000000	98.300488
2724.000000	98.334800
2722.000000	98.368740
2720.000000	98.403014
2718.000000	98.434869
2716.000000	98.464160
2714.000000	98.491522
2712.000000	98.519224
2710.000000	98.545874
2708.000000	98.572607
2706.000000	98.599946
2704.000000	98.632415
2702.000000	98.670723
2700.000000	98.715244
2698.000000	98.763975
2696.000000	98.813839
2694.000000	98.859971
2692.000000	98.904247
2690.000000	98.947940
2688.000000	98.992047
2686.000000	99.034183
2684.000000	99.073745
2682.000000	99.111988
2680.000000	99.150936
2678.000000	99.188161
2676.000000	99.222666
2674.000000	99.253101
2672.000000	99.284093
2670.000000	99.315626
2668.000000	99.347341
2666.000000	99.378189
2664.000000	99.408979
2662.000000	99.440014
2660.000000	99.471177
2658.000000	99.504308
2656.000000	99.539738
2654.000000	99.576866
2652.000000	99.617656
2650.000000	99.659097
2648.000000	99.701569
2646.000000	99.742351
2644.000000	99.780501
2642.000000	99.818128
2640.000000	99.856570
2638.000000	99.893031
2636.000000	99.929585
2634.000000	99.965131
2632.000000	99.998318
2630.000000	100.028564
2628.000000	100.058873
2626.000000	100.086788
2624.000000	100.116129
2622.000000	100.149412
2620.000000	100.180901
2618.000000	100.209603
2616.000000	100.236056
2614.000000	100.260323
2612.000000	100.286763
2610.000000	100.310288
2608.000000	100.330174
2606.000000	100.349987
2604.000000	100.369237
2602.000000	100.384899
2600.000000	100.398369
2598.000000	100.410592
2596.000000	100.425219
2594.000000	100.439855
2592.000000	100.462829
2590.000000	100.497733
2588.000000	100.542157
2586.000000	100.593369
2584.000000	100.652820
2582.000000	100.717345
2580.000000	100.782194
2578.000000	100.843123
2576.000000	100.899383
2574.000000	100.947872
2572.000000	100.989966
2570.000000	101.030343
2568.000000	101.070615
2566.000000	101.106854
2564.000000	101.142950
2562.000000	101.175747
2560.000000	101.205222
2558.000000	101.233930
2556.000000	101.265317
2554.000000	101.294281
2552.000000	101.320220
2550.000000	101.347312
2548.000000	101.376156
2546.000000	101.405162
2544.000000	101.433816
2542.000000	101.460794
2540.000000	101.489875
2538.000000	101.518820
2536.000000	101.548065
2534.000000	101.576228
2532.000000	101.604776
2530.000000	101.631804
2528.000000	101.658851
2526.000000	101.685065
2524.000000	101.711366
2522.000000	101.735838
2520.000000	101.761378
2518.000000	101.788068
2516.000000	101.815164
2514.000000	101.840766
2512.000000	101.865599
2510.000000	101.888076
2508.000000	101.911089
2506.000000	101.933052
2504.000000	101.954416
2502.000000	101.976505
2500.000000	102.003260
2498.000000	102.031276
2496.000000	102.058618
2494.000000	102.087272
2492.000000	102.118025
2490.000000	102.145690
2488.000000	102.172315
2486.000000	102.198883
2484.000000	102.228646
2482.000000	102.256807
2480.000000	102.283483
2478.000000	102.308650
2476.000000	102.332691
2474.000000	102.355239
2472.000000	102.377375
2470.000000	102.396828
2468.000000	102.416875
2466.000000	102.437134
2464.000000	102.455821
2462.000000	102.472646
2460.000000	102.489430
2458.000000	102.506641
2456.000000	102.528377
2454.000000	102.548545
2452.000000	102.567636
2450.000000	102.585426
2448.000000	102.603810
2446.000000	102.622595
2444.000000	102.641153
2442.000000	102.656822
2440.000000	102.673047
2438.000000	102.689150
2436.000000	102.705732
2434.000000	102.721240
2432.000000	102.738087
2430.000000	102.751219
2428.000000	102.762255
2426.000000	102.776613
2424.000000	102.796955
2422.000000	102.814655
2420.000000	102.829170
2418.000000	102.844698
2416.000000	102.860620
2414.000000	102.873903
2412.000000	102.886988
2410.000000	102.899333
2408.000000	102.914160
2406.000000	102.929299
2404.000000	102.945156
2402.000000	102.961412
2400.000000	102.979221
2398.000000	102.998130
2396.000000	103.019946
2394.000000	103.039626
2392.000000	103.057542
2390.000000	103.075820
2388.000000	103.092408
2386.000000	103.099588
2384.000000	103.096249
2382.000000	103.071306
2380.000000	103.017963
2378.000000	102.930828
2376.000000	102.808387
2374.000000	102.646932
2372.000000	102.455789
2370.000000	102.252015
2368.000000	102.058262
2366.000000	101.895683
2364.000000	101.789437
2362.000000	101.756826
2360.000000	101.807774
2358.000000	101.941611
2356.000000	102.151171
2354.000000	102.417642
2352.000000	102.712332
2350.000000	102.926223
2348.000000	102.918500
2346.000000	102.734552
2344.000000	102.534825
2342.000000	102.388370
2340.000000	102.306082
2338.000000	102.273397
2336.000000	102.275331
2334.000000	102.302257
2332.000000	102.354023
2330.000000	102.427156
2328.000000	102.519674
2326.000000	102.623945
2324.000000	102.731147
2322.000000	102.833540
2320.000000	102.931949
2318.000000	103.021982
2316.000000	103.103198
2314.000000	103.175179
2312.000000	103.238839
2310.000000	103.291290
2308.000000	103.336767
2306.000000	103.375719
2304.000000	103.410475
2302.000000	103.436862
2300.000000	103.459653
2298.000000	103.480941
2296.000000	103.500111
2294.000000	103.513926
2292.000000	103.527887
2290.000000	103.539727
2288.000000	103.550793
2286.000000	103.559976
2284.000000	103.568660
2282.000000	103.572609
2280.000000	103.572987
2278.000000	103.570114
2276.000000	103.568351
2274.000000	103.565218
2272.000000	103.561180
2270.000000	103.553749
2268.000000	103.548254
2266.000000	103.546079
2264.000000	103.545833
2262.000000	103.543585
2260.000000	103.542087
2258.000000	103.540635
2256.000000	103.544030
2254.000000	103.548681
2252.000000	103.555046
2250.000000	103.562018
2248.000000	103.572122
2246.000000	103.581606
2244.000000	103.592376
2242.000000	103.605714
2240.000000	103.622897
2238.000000	103.638444
2236.000000	103.655115
2234.000000	103.668174
2232.000000	103.680752
2230.000000	103.694510
2228.000000	103.709601
2226.000000	103.721972
2224.000000	103.735274
2222.000000	103.746821
2220.000000	103.756848
2218.000000	103.764681
2216.000000	103.774081
2214.000000	103.780260
2212.000000	103.787302
2210.000000	103.793356
2208.000000	103.799016
2206.000000	103.803213
2204.000000	103.808942
2202.000000	103.813493
2200.000000	103.821264
2198.000000	103.829007
2196.000000	103.833534
2194.000000	103.834610
2192.000000	103.838241
2190.000000	103.840344
2188.000000	103.843134
2186.000000	103.843062
2184.000000	103.843928
2182.000000	103.843121
2180.000000	103.844592
2178.000000	103.843589
2176.000000	103.842055
2174.000000	103.833382
2172.000000	103.811385
2170.000000	103.788717
2168.000000	103.801623
2166.000000	103.825103
2164.000000	103.835569
2162.000000	103.838389
2160.000000	103.838131
2158.000000	103.836298
2156.000000	103.838067
2154.000000	103.839906
2152.000000	103.840305
2150.000000	103.837462
2148.000000	103.837553
2146.000000	103.839655
2144.000000	103.843093
2142.000000	103.840654
2140.000000	103.838608
2138.000000	103.837023
2136.000000	103.836501
2134.000000	103.837443
2132.000000	103.839853
2130.000000	103.840782
2128.000000	103.841347
2126.000000	103.840703
2124.000000	103.842011
2122.000000	103.844424
2120.000000	103.847530
2118.000000	103.850235
2116.000000	103.853615
2114.000000	103.860460
2112.000000	103.872436
2110.000000	103.885303
2108.000000	103.898994
2106.000000	103.912089
2104.000000	103.926002
2102.000000	103.938975
2100.000000	103.952095
2098.000000	103.963992
2096.000000	103.980321
2094.000000	103.993156
2092.000000	104.005141
2090.000000	104.015829
2088.000000	104.034630
2086.000000	104.052736
2084.000000	104.072742
2082.000000	104.089356
2080.000000	104.107119
2078.000000	104.122751
2076.000000	104.140587
2074.000000	104.155405
2072.000000	104.174320
2070.000000	104.193111
2068.000000	104.210210
2066.000000	104.223114
2064.000000	104.247279
2062.000000	104.274623
2060.000000	104.298480
2058.000000	104.318602
2056.000000	104.340935
2054.000000	104.362313
2052.000000	104.385711
2050.000000	104.406763
2048.000000	104.428634
2046.000000	104.446038
2044.000000	104.461535
2042.000000	104.475937
2040.000000	104.499341
2038.000000	104.518734
2036.000000	104.532314
2034.000000	104.540980
2032.000000	104.542132
2030.000000	104.526803
2028.000000	104.536709
2026.000000	104.571460
2024.000000	104.594395
2022.000000	104.604999
2020.000000	104.606652
2018.000000	104.604238
2016.000000	104.628640
2014.000000	104.663919
2012.000000	104.688060
2010.000000	104.701987
2008.000000	104.715833
2006.000000	104.729297
2004.000000	104.742257
2002.000000	104.750853
2000.000000	104.756344
1998.000000	104.761216
1996.000000	104.764909
1994.000000	104.737145
1992.000000	104.711688
1990.000000	104.732341
1988.000000	104.755225
1986.000000	104.762748
1984.000000	104.760239
1982.000000	104.750050
1980.000000	104.737786
1978.000000	104.723384
1976.000000	104.711564
1974.000000	104.695512
1972.000000	104.677752
1970.000000	104.648257
1968.000000	104.603326
1966.000000	104.583552
1964.000000	104.580262
1962.000000	104.525043
1960.000000	104.405203
1958.000000	104.376272
1956.000000	104.457846
1954.000000	104.484352
1952.000000	104.463871
1950.000000	104.432724
1948.000000	104.412550
1946.000000	104.373396
1944.000000	104.300005
1942.000000	104.266207
1940.000000	104.309429
1938.000000	104.319152
1936.000000	104.299634
1934.000000	104.271243
1932.000000	104.247761
1930.000000	104.220023
1928.000000	104.191837
1926.000000	104.142306
1924.000000	104.066635
1922.000000	104.017229
1920.000000	103.934932
1918.000000	103.833495
1916.000000	103.888464
1914.000000	103.920608
1912.000000	103.864205
1910.000000	103.784608
1908.000000	103.743127
1906.000000	103.708418
1904.000000	103.662602
1902.000000	103.609769
1900.000000	103.566445
1898.000000	103.508725
1896.000000	103.448208
1894.000000	103.416065
1892.000000	103.372534
1890.000000	103.288759
1888.000000	103.307825
1886.000000	103.342106
1884.000000	103.336867
1882.000000	103.323490
1880.000000	103.307433
1878.000000	103.278827
1876.000000	103.256288
1874.000000	103.222500
1872.000000	103.113751
1870.000000	102.899048
1868.000000	102.867418
1866.000000	103.003167
1864.000000	103.068170
1862.000000	103.048388
1860.000000	103.015856
1858.000000	102.983617
1856.000000	102.959266
1854.000000	102.923400
1852.000000	102.886633
1850.000000	102.820790
1848.000000	102.701994
1846.000000	102.395816
1844.000000	102.202602
1842.000000	102.433111
1840.000000	102.582707
1838.000000	102.530674
1836.000000	102.478557
1834.000000	102.412017
1832.000000	102.212793
1830.000000	102.011184
1828.000000	102.028596
1826.000000	101.985627
1824.000000	101.974015
1822.000000	102.028659
1820.000000	101.997174
1818.000000	101.917222
1816.000000	101.853003
1814.000000	101.764884
1812.000000	101.622990
1810.000000	101.523570
1808.000000	101.491400
1806.000000	101.420130
1804.000000	101.269692
1802.000000	101.051193
1800.000000	100.923862
1798.000000	100.894004
1796.000000	100.769062
1794.000000	100.376300
1792.000000	100.142995
1790.000000	100.321508
1788.000000	100.398802
1786.000000	100.223433
1784.000000	100.093955
1782.000000	99.995861
1780.000000	99.889763
1778.000000	99.820337
1776.000000	99.596355
1774.000000	99.056746
1772.000000	98.775705
1770.000000	98.985196
1768.000000	99.089571
1766.000000	99.191687
1764.000000	99.059716
1762.000000	98.787913
1760.000000	98.771930
1758.000000	98.677995
1756.000000	98.543699
1754.000000	98.353915
1752.000000	97.853361
1750.000000	97.650072
1748.000000	97.727221
1746.000000	97.710912
1744.000000	97.561358
1742.000000	97.287706
1740.000000	97.024085
1738.000000	96.959980
1736.000000	96.370046
1734.000000	95.776617
1732.000000	96.293882
1730.000000	96.784735
1728.000000	96.887425
1726.000000	96.862022
1724.000000	96.775978
1722.000000	96.642536
1720.000000	96.081720
1718.000000	95.311623
1716.000000	95.431046
1714.000000	95.951013
1712.000000	96.183901
1710.000000	96.111357
1708.000000	95.864911
1706.000000	95.576458
1704.000000	95.410509
1702.000000	94.691475
1700.000000	94.153547
1698.000000	94.320645
1696.000000	94.245453
1694.000000	94.885991
1692.000000	95.447487
1690.000000	95.389950
1688.000000	95.072845
1686.000000	94.097318
1684.000000	93.723601
1682.000000	94.564242
1680.000000	95.030124
1678.000000	94.894031
1676.000000	94.462193
1674.000000	94.431879
1672.000000	94.438363
1670.000000	94.154725
1668.000000	94.272336
1666.000000	94.461100
1664.000000	94.220254
1662.000000	94.080295
1660.000000	94.198702
1658.000000	94.100501
1656.000000	93.271758
1654.000000	91.758580
1652.000000	91.829609
1650.000000	92.956990
1648.000000	92.845215
1646.000000	92.589421
1644.000000	92.977597
1642.000000	93.184267
1640.000000	92.985905
1638.000000	92.390943
1636.000000	91.702044
1634.000000	91.921670
1632.000000	92.310840
1630.000000	92.125888
1628.000000	91.771134
1626.000000	91.397681
1624.000000	90.859955
1622.000000	90.482712
1620.000000	90.079709
1618.000000	89.193282
1616.000000	88.722026
1614.000000	88.766208
1612.000000	88.313553
1610.000000	87.692512
1608.000000	87.373440
1606.000000	87.403758
1604.000000	87.597847
1602.000000	87.841520
1600.000000	88.076646
1598.000000	88.279244
1596.000000	88.427830
1594.000000	88.543051
1592.000000	88.610742
1590.000000	88.616849
1588.000000	88.577454
1586.000000	88.508815
1584.000000	88.434086
1582.000000	88.385168
1580.000000	88.266969
1578.000000	87.678426
1576.000000	87.254013
1574.000000	87.765858
1572.000000	87.907186
1570.000000	87.566673
1568.000000	87.555807
1566.000000	87.540710
1564.000000	87.256283
1562.000000	86.375167
1560.000000	85.004545
1558.000000	84.988386
1556.000000	85.928647
1554.000000	86.491129
1552.000000	86.944921
1550.000000	87.228275
1548.000000	87.407238
1546.000000	87.363138
1544.000000	87.139509
1542.000000	86.688790
1540.000000	86.467199
1538.000000	87.366026
1536.000000	88.252889
1534.000000	88.318766
1532.000000	88.565209
1530.000000	88.800913
1528.000000	88.680005
1526.000000	88.474645
1524.000000	88.206065
1522.000000	87.703016
1520.000000	87.747076
1518.000000	87.939481
1516.000000	87.848436
1514.000000	87.761904
1512.000000	87.568739
1510.000000	87.136813
1508.000000	86.085391
1506.000000	85.439350
1504.000000	85.543475
1502.000000	84.655183
1500.000000	82.227977
1498.000000	78.987085
1496.000000	76.483241
1494.000000	76.054796
1492.000000	77.148929
1490.000000	78.922003
1488.000000	80.847472
1486.000000	82.408018
1484.000000	83.431658
1482.000000	83.946483
1480.000000	84.184408
1478.000000	84.129318
1476.000000	83.826615
1474.000000	83.357579
1472.000000	83.169683
1470.000000	83.342515
1468.000000	83.171084
1466.000000	82.616558
1464.000000	82.227894
1462.000000	81.936081
1460.000000	81.035425
1458.000000	79.492850
1456.000000	78.467899
1454.000000	78.058717
1452.000000	77.566133
1450.000000	77.644518
1448.000000	78.478687
1446.000000	79.445687
1444.000000	79.928848
1442.000000	80.040891
1440.000000	79.952755
1438.000000	79.617319
1436.000000	79.594193
1434.000000	80.005165
1432.000000	80.092125
1430.000000	80.026614
1428.000000	80.050700
1426.000000	80.056441
1424.000000	79.959590
1422.000000	79.739937
1420.000000	79.263261
1418.000000	79.188275
1416.000000	79.332740
1414.000000	79.206599
1412.000000	78.856103
1410.000000	78.329358
1408.000000	77.579437
1406.000000	76.763923
1404.000000	76.297960
1402.000000	76.312852
1400.000000	76.541309
1398.000000	76.971806
1396.000000	77.351085
1394.000000	77.670020
1392.000000	77.990639
1390.000000	77.995662
1388.000000	77.685894
1386.000000	77.407973
1384.000000	77.312829
1382.000000	77.417676
1380.000000	77.515809
1378.000000	77.462519
1376.000000	77.306849
1374.000000	77.173573
1372.000000	77.136896
1370.000000	77.040227
1368.000000	76.885057
1366.000000	76.728465
1364.000000	76.501060
1362.000000	76.316605
1360.000000	76.222056
1358.000000	76.092745
1356.000000	75.898181
1354.000000	75.694539
1352.000000	75.490374
1350.000000	75.276254
1348.000000	75.057673
1346.000000	74.829384
1344.000000	74.581509
1342.000000	74.310632
1340.000000	74.057340
1338.000000	73.918122
1336.000000	73.843846
1334.000000	73.748585
1332.000000	73.599434
1330.000000	73.410142
1328.000000	73.188466
1326.000000	72.945661
1324.000000	72.682624
1322.000000	72.401215
1320.000000	72.096157
1318.000000	71.798988
1316.000000	71.504197
1314.000000	71.194101
1312.000000	70.882227
1310.000000	70.570511
1308.000000	70.243972
1306.000000	69.913069
1304.000000	69.573516
1302.000000	69.232176
1300.000000	68.888781
1298.000000	68.543703
1296.000000	68.188475
1294.000000	67.824804
1292.000000	67.443937
1290.000000	67.050232
1288.000000	66.649441
1286.000000	66.251718
1284.000000	65.841094
1282.000000	65.410539
1280.000000	64.953714
1278.000000	64.468442
1276.000000	63.931210
1274.000000	63.318484
1272.000000	62.591807
1270.000000	61.709637
1268.000000	60.610325
1266.000000	59.296405
1264.000000	57.930777
1262.000000	56.837956
1260.000000	56.297154
1258.000000	56.307953
1256.000000	56.596266
1254.000000	56.837543
1252.000000	56.832032
1250.000000	56.585666
1248.000000	56.189322
1246.000000	55.719670
1244.000000	55.212897
1242.000000	54.698987
1240.000000	54.188712
1238.000000	53.697358
1236.000000	53.226083
1234.000000	52.767243
1232.000000	52.312931
1230.000000	51.870779
1228.000000	51.428033
1226.000000	50.980566
1224.000000	50.522923
1222.000000	50.053090
1220.000000	49.562646
1218.000000	49.052900
1216.000000	48.534247
1214.000000	48.023116
1212.000000	47.532970
1210.000000	47.081641
1208.000000	46.665010
1206.000000	46.269454
1204.000000	45.872104
1202.000000	45.475552
1200.000000	45.083944
1198.000000	44.700210
1196.000000	44.311014
1194.000000	43.907225
1192.000000	43.489555
1190.000000	43.062672
1188.000000	42.621891
1186.000000	42.153613
1184.000000	41.572866
1182.000000	40.847207
1180.000000	40.282958
1178.000000	40.036725
1176.000000	39.805022
1174.000000	39.447831
1172.000000	39.021318
1170.000000	38.574058
1168.000000	38.111619
1166.000000	37.640237
1164.000000	37.170017
1162.000000	36.708299
1160.000000	36.250614
1158.000000	35.814338
1156.000000	35.396107
1154.000000	34.980610
1152.000000	34.555599
1150.000000	34.133608
1148.000000	33.705319
1146.000000	33.269616
1144.000000	32.838534
1142.000000	32.457499
1140.000000	32.146514
1138.000000	31.835436
1136.000000	31.477366
1134.000000	31.086234
1132.000000	30.670896
1130.000000	30.244485
1128.000000	29.820183
1126.000000	29.403028
1124.000000	28.977709
1122.000000	28.539503
1120.000000	28.088751
1118.000000	27.633895
1116.000000	27.170031
1114.000000	26.703838
1112.000000	26.238088
1110.000000	25.776554
1108.000000	25.324212
1106.000000	24.887215
1104.000000	24.467590
1102.000000	24.058776
1100.000000	23.649841
1098.000000	23.245584
1096.000000	22.848657
1094.000000	22.466796
1092.000000	22.099686
1090.000000	21.748939
1088.000000	21.404975
1086.000000	21.067183
1084.000000	20.720679
1082.000000	20.363548
1080.000000	20.024909
1078.000000	19.719888
1076.000000	19.443157
1074.000000	19.212561
1072.000000	18.997759
1070.000000	18.771786
1068.000000	18.538865
1066.000000	18.307074
1064.000000	18.076136
1062.000000	17.843320
1060.000000	17.596206
1058.000000	17.310459
1056.000000	16.921085
1054.000000	16.408673
1052.000000	15.901428
1050.000000	15.604088
1048.000000	15.569303
1046.000000	15.649293
1044.000000	15.649293
1042.000000	15.530805
1040.000000	15.342321
1038.000000	15.128853
1036.000000	14.902228
1034.000000	14.666529
1032.000000	14.419089
1030.000000	14.163105
1028.000000	13.899002
1026.000000	13.629214
1024.000000	13.356357
1022.000000	13.092424
1020.000000	12.840111
1018.000000	12.605224
1016.000000	12.391159
1014.000000	12.202981
1012.000000	12.031066
1010.000000	11.869933
1008.000000	11.705991
1006.000000	11.528729
1004.000000	11.333192
1002.000000	11.121828
1000.000000	10.893287
