PE IR       SUBTECH     SPECTRUM    ASCII       PEDS        4.00        
   -1
TE109A_046_115K_SB.ASC
20/04/21
15:55:38.00
20/04/21
15:55:38.00
Administrator
TE109A, Tuesday, April 21 2020, 046.
1000.000000
#HDR
-1
-1
#GR
cm-1
EGY
1.0
0.0
6000.000000
-2.000000
2501
8
7.715305
0.796788
#DATA
6000.000000	1.378649
5998.000000	1.382405
5996.000000	1.385110
5994.000000	1.387456
5992.000000	1.389775
5990.000000	1.392937
5988.000000	1.396228
5986.000000	1.399535
5984.000000	1.401904
5982.000000	1.404907
5980.000000	1.408397
5978.000000	1.411251
5976.000000	1.413060
5974.000000	1.414087
5972.000000	1.417252
5970.000000	1.422207
5968.000000	1.425580
5966.000000	1.427435
5964.000000	1.428368
5962.000000	1.430583
5960.000000	1.433880
5958.000000	1.437277
5956.000000	1.441562
5954.000000	1.446175
5952.000000	1.449057
5950.000000	1.450579
5948.000000	1.451941
5946.000000	1.455148
5944.000000	1.459319
5942.000000	1.461993
5940.000000	1.464808
5938.000000	1.468199
5936.000000	1.471475
5934.000000	1.474070
5932.000000	1.476530
5930.000000	1.478995
5928.000000	1.481818
5926.000000	1.484065
5924.000000	1.487137
5922.000000	1.490436
5920.000000	1.494391
5918.000000	1.497565
5916.000000	1.499859
5914.000000	1.501793
5912.000000	1.504615
5910.000000	1.509222
5908.000000	1.513371
5906.000000	1.514814
5904.000000	1.516304
5902.000000	1.518964
5900.000000	1.522182
5898.000000	1.526099
5896.000000	1.529030
5894.000000	1.533016
5892.000000	1.536428
5890.000000	1.539370
5888.000000	1.542703
5886.000000	1.545427
5884.000000	1.547766
5882.000000	1.550099
5880.000000	1.552889
5878.000000	1.556740
5876.000000	1.560169
5874.000000	1.562902
5872.000000	1.565532
5870.000000	1.567711
5868.000000	1.571334
5866.000000	1.575539
5864.000000	1.579540
5862.000000	1.582576
5860.000000	1.584671
5858.000000	1.586808
5856.000000	1.590693
5854.000000	1.595497
5852.000000	1.599474
5850.000000	1.602676
5848.000000	1.604718
5846.000000	1.607178
5844.000000	1.611646
5842.000000	1.616396
5840.000000	1.620501
5838.000000	1.623691
5836.000000	1.626228
5834.000000	1.629444
5832.000000	1.632632
5830.000000	1.636112
5828.000000	1.640319
5826.000000	1.643983
5824.000000	1.646429
5822.000000	1.649034
5820.000000	1.652339
5818.000000	1.655279
5816.000000	1.658093
5814.000000	1.662252
5812.000000	1.666888
5810.000000	1.671590
5808.000000	1.675172
5806.000000	1.677961
5804.000000	1.680523
5802.000000	1.682801
5800.000000	1.686171
5798.000000	1.690935
5796.000000	1.694107
5794.000000	1.697288
5792.000000	1.700710
5790.000000	1.704126
5788.000000	1.706931
5786.000000	1.709637
5784.000000	1.712829
5782.000000	1.716790
5780.000000	1.719848
5778.000000	1.722831
5776.000000	1.726553
5774.000000	1.731100
5772.000000	1.736588
5770.000000	1.740450
5768.000000	1.742276
5766.000000	1.744811
5764.000000	1.749236
5762.000000	1.753781
5760.000000	1.756995
5758.000000	1.759436
5756.000000	1.763237
5754.000000	1.767701
5752.000000	1.770796
5750.000000	1.774668
5748.000000	1.778691
5746.000000	1.783492
5744.000000	1.786876
5742.000000	1.787962
5740.000000	1.789868
5738.000000	1.793119
5736.000000	1.797664
5734.000000	1.801925
5732.000000	1.804102
5730.000000	1.806253
5728.000000	1.808542
5726.000000	1.811028
5724.000000	1.816001
5722.000000	1.821369
5720.000000	1.825861
5718.000000	1.829196
5716.000000	1.832141
5714.000000	1.835685
5712.000000	1.839167
5710.000000	1.841922
5708.000000	1.844736
5706.000000	1.847763
5704.000000	1.851832
5702.000000	1.857299
5700.000000	1.862003
5698.000000	1.865041
5696.000000	1.867759
5694.000000	1.870746
5692.000000	1.875029
5690.000000	1.879466
5688.000000	1.883405
5686.000000	1.887044
5684.000000	1.889562
5682.000000	1.891852
5680.000000	1.894521
5678.000000	1.898760
5676.000000	1.905317
5674.000000	1.910418
5672.000000	1.914378
5670.000000	1.917525
5668.000000	1.920220
5666.000000	1.924640
5664.000000	1.929619
5662.000000	1.934520
5660.000000	1.938284
5658.000000	1.941360
5656.000000	1.945856
5654.000000	1.949005
5652.000000	1.951415
5650.000000	1.954437
5648.000000	1.958600
5646.000000	1.963582
5644.000000	1.967874
5642.000000	1.971041
5640.000000	1.974682
5638.000000	1.979183
5636.000000	1.984254
5634.000000	1.987948
5632.000000	1.989579
5630.000000	1.991649
5628.000000	1.996026
5626.000000	2.001994
5624.000000	2.007592
5622.000000	2.010545
5620.000000	2.012831
5618.000000	2.015831
5616.000000	2.019609
5614.000000	2.023598
5612.000000	2.027451
5610.000000	2.031036
5608.000000	2.035354
5606.000000	2.039993
5604.000000	2.044587
5602.000000	2.049190
5600.000000	2.052458
5598.000000	2.055151
5596.000000	2.058447
5594.000000	2.063500
5592.000000	2.067881
5590.000000	2.071083
5588.000000	2.074806
5586.000000	2.079983
5584.000000	2.083855
5582.000000	2.085658
5580.000000	2.087952
5578.000000	2.092312
5576.000000	2.097594
5574.000000	2.102104
5572.000000	2.105774
5570.000000	2.108932
5568.000000	2.113398
5566.000000	2.117688
5564.000000	2.122021
5562.000000	2.125768
5560.000000	2.129498
5558.000000	2.134467
5556.000000	2.140243
5554.000000	2.145338
5552.000000	2.149362
5550.000000	2.151835
5548.000000	2.153887
5546.000000	2.156990
5544.000000	2.162150
5542.000000	2.167601
5540.000000	2.171288
5538.000000	2.174658
5536.000000	2.177661
5534.000000	2.181710
5532.000000	2.187446
5530.000000	2.192345
5528.000000	2.195659
5526.000000	2.197486
5524.000000	2.200266
5522.000000	2.204257
5520.000000	2.207682
5518.000000	2.212302
5516.000000	2.218376
5514.000000	2.224195
5512.000000	2.228506
5510.000000	2.231337
5508.000000	2.234555
5506.000000	2.239195
5504.000000	2.243252
5502.000000	2.245271
5500.000000	2.247652
5498.000000	2.251209
5496.000000	2.256897
5494.000000	2.262989
5492.000000	2.267976
5490.000000	2.272079
5488.000000	2.275685
5486.000000	2.280096
5484.000000	2.283301
5482.000000	2.285781
5480.000000	2.289391
5478.000000	2.293832
5476.000000	2.299087
5474.000000	2.303910
5472.000000	2.307871
5470.000000	2.312192
5468.000000	2.315590
5466.000000	2.319991
5464.000000	2.324179
5462.000000	2.327118
5460.000000	2.330185
5458.000000	2.333801
5456.000000	2.340017
5454.000000	2.346491
5452.000000	2.350991
5450.000000	2.354772
5448.000000	2.359293
5446.000000	2.364013
5444.000000	2.368459
5442.000000	2.372399
5440.000000	2.375549
5438.000000	2.378343
5436.000000	2.381601
5434.000000	2.384860
5432.000000	2.388608
5430.000000	2.393175
5428.000000	2.399324
5426.000000	2.406034
5424.000000	2.410414
5422.000000	2.413317
5420.000000	2.416420
5418.000000	2.420235
5416.000000	2.423181
5414.000000	2.425328
5412.000000	2.430371
5410.000000	2.436412
5408.000000	2.441408
5406.000000	2.444609
5404.000000	2.448546
5402.000000	2.451791
5400.000000	2.454443
5398.000000	2.458302
5396.000000	2.463132
5394.000000	2.467210
5392.000000	2.470761
5390.000000	2.475637
5388.000000	2.481811
5386.000000	2.487369
5384.000000	2.491370
5382.000000	2.494366
5380.000000	2.497037
5378.000000	2.500195
5376.000000	2.504888
5374.000000	2.510700
5372.000000	2.516497
5370.000000	2.521561
5368.000000	2.524766
5366.000000	2.527750
5364.000000	2.531652
5362.000000	2.537091
5360.000000	2.541448
5358.000000	2.543922
5356.000000	2.546056
5354.000000	2.550651
5352.000000	2.557609
5350.000000	2.564498
5348.000000	2.567345
5346.000000	2.568150
5344.000000	2.570235
5342.000000	2.574158
5340.000000	2.578912
5338.000000	2.584004
5336.000000	2.589708
5334.000000	2.593437
5332.000000	2.596258
5330.000000	2.599698
5328.000000	2.603962
5326.000000	2.608916
5324.000000	2.613786
5322.000000	2.618229
5320.000000	2.621263
5318.000000	2.624647
5316.000000	2.628518
5314.000000	2.631926
5312.000000	2.634591
5310.000000	2.637423
5308.000000	2.642007
5306.000000	2.647953
5304.000000	2.653399
5302.000000	2.656915
5300.000000	2.658524
5298.000000	2.660561
5296.000000	2.664453
5294.000000	2.669375
5292.000000	2.673179
5290.000000	2.674869
5288.000000	2.677017
5286.000000	2.682045
5284.000000	2.687606
5282.000000	2.691966
5280.000000	2.695221
5278.000000	2.699314
5276.000000	2.702600
5274.000000	2.705188
5272.000000	2.707343
5270.000000	2.709568
5268.000000	2.711590
5266.000000	2.715540
5264.000000	2.719845
5262.000000	2.722163
5260.000000	2.723212
5258.000000	2.726203
5256.000000	2.730808
5254.000000	2.735003
5252.000000	2.737788
5250.000000	2.739855
5248.000000	2.741542
5246.000000	2.743392
5244.000000	2.746858
5242.000000	2.750323
5240.000000	2.754408
5238.000000	2.758100
5236.000000	2.761212
5234.000000	2.763659
5232.000000	2.765520
5230.000000	2.768544
5228.000000	2.771508
5226.000000	2.774657
5224.000000	2.777208
5222.000000	2.779179
5220.000000	2.780386
5218.000000	2.781350
5216.000000	2.784597
5214.000000	2.789852
5212.000000	2.793331
5210.000000	2.793063
5208.000000	2.792709
5206.000000	2.796018
5204.000000	2.800985
5202.000000	2.804458
5200.000000	2.806296
5198.000000	2.807891
5196.000000	2.809784
5194.000000	2.812995
5192.000000	2.816767
5190.000000	2.819863
5188.000000	2.821138
5186.000000	2.822525
5184.000000	2.824230
5182.000000	2.825912
5180.000000	2.827683
5178.000000	2.831992
5176.000000	2.837020
5174.000000	2.841128
5172.000000	2.843659
5170.000000	2.845377
5168.000000	2.845512
5166.000000	2.844964
5164.000000	2.846141
5162.000000	2.849907
5160.000000	2.854576
5158.000000	2.858521
5156.000000	2.861503
5154.000000	2.864321
5152.000000	2.867398
5150.000000	2.869889
5148.000000	2.872550
5146.000000	2.875220
5144.000000	2.877213
5142.000000	2.879658
5140.000000	2.883645
5138.000000	2.888450
5136.000000	2.891601
5134.000000	2.893523
5132.000000	2.896631
5130.000000	2.900037
5128.000000	2.902935
5126.000000	2.905535
5124.000000	2.908178
5122.000000	2.911083
5120.000000	2.914671
5118.000000	2.919090
5116.000000	2.923302
5114.000000	2.926924
5112.000000	2.929700
5110.000000	2.933015
5108.000000	2.937878
5106.000000	2.942609
5104.000000	2.946012
5102.000000	2.950304
5100.000000	2.954970
5098.000000	2.957653
5096.000000	2.958709
5094.000000	2.962414
5092.000000	2.968730
5090.000000	2.974263
5088.000000	2.977262
5086.000000	2.980287
5084.000000	2.984582
5082.000000	2.989471
5080.000000	2.994840
5078.000000	3.000653
5076.000000	3.005604
5074.000000	3.009094
5072.000000	3.011759
5070.000000	3.014176
5068.000000	3.017482
5066.000000	3.022409
5064.000000	3.028205
5062.000000	3.034793
5060.000000	3.040768
5058.000000	3.045061
5056.000000	3.048331
5054.000000	3.052391
5052.000000	3.057726
5050.000000	3.063098
5048.000000	3.067409
5046.000000	3.071629
5044.000000	3.075769
5042.000000	3.079802
5040.000000	3.083845
5038.000000	3.088364
5036.000000	3.092011
5034.000000	3.094791
5032.000000	3.097803
5030.000000	3.102214
5028.000000	3.108171
5026.000000	3.114295
5024.000000	3.118579
5022.000000	3.121687
5020.000000	3.126847
5018.000000	3.134066
5016.000000	3.139936
5014.000000	3.143150
5012.000000	3.145845
5010.000000	3.150635
5008.000000	3.157924
5006.000000	3.164897
5004.000000	3.169778
5002.000000	3.172838
5000.000000	3.177110
4998.000000	3.181990
4996.000000	3.186466
4994.000000	3.191124
4992.000000	3.195715
4990.000000	3.200349
4988.000000	3.205573
4986.000000	3.210945
4984.000000	3.216243
4982.000000	3.222243
4980.000000	3.229535
4978.000000	3.235675
4976.000000	3.240490
4974.000000	3.244990
4972.000000	3.249177
4970.000000	3.253714
4968.000000	3.258819
4966.000000	3.263605
4964.000000	3.267461
4962.000000	3.272558
4960.000000	3.278559
4958.000000	3.284212
4956.000000	3.288615
4954.000000	3.293325
4952.000000	3.299625
4950.000000	3.307120
4948.000000	3.312886
4946.000000	3.317076
4944.000000	3.322230
4942.000000	3.327578
4940.000000	3.332441
4938.000000	3.338003
4936.000000	3.343825
4934.000000	3.349026
4932.000000	3.354133
4930.000000	3.359601
4928.000000	3.365746
4926.000000	3.371413
4924.000000	3.375345
4922.000000	3.378084
4920.000000	3.382472
4918.000000	3.388074
4916.000000	3.393884
4914.000000	3.399672
4912.000000	3.406051
4910.000000	3.413644
4908.000000	3.420312
4906.000000	3.424398
4904.000000	3.427573
4902.000000	3.432845
4900.000000	3.440131
4898.000000	3.447730
4896.000000	3.453615
4894.000000	3.457980
4892.000000	3.462785
4890.000000	3.469169
4888.000000	3.475979
4886.000000	3.481729
4884.000000	3.488013
4882.000000	3.494914
4880.000000	3.501832
4878.000000	3.507441
4876.000000	3.512937
4874.000000	3.517312
4872.000000	3.522427
4870.000000	3.529552
4868.000000	3.536811
4866.000000	3.542891
4864.000000	3.548638
4862.000000	3.554206
4860.000000	3.559171
4858.000000	3.564974
4856.000000	3.571382
4854.000000	3.578074
4852.000000	3.584304
4850.000000	3.589591
4848.000000	3.594068
4846.000000	3.600081
4844.000000	3.606793
4842.000000	3.611905
4840.000000	3.617042
4838.000000	3.624702
4836.000000	3.632902
4834.000000	3.638870
4832.000000	3.643314
4830.000000	3.648123
4828.000000	3.653506
4826.000000	3.659088
4824.000000	3.664703
4822.000000	3.670883
4820.000000	3.678374
4818.000000	3.685963
4816.000000	3.692749
4814.000000	3.698307
4812.000000	3.704151
4810.000000	3.710545
4808.000000	3.717301
4806.000000	3.723414
4804.000000	3.730973
4802.000000	3.740793
4800.000000	3.748700
4798.000000	3.752617
4796.000000	3.756894
4794.000000	3.763206
4792.000000	3.769800
4790.000000	3.776555
4788.000000	3.783301
4786.000000	3.789191
4784.000000	3.795137
4782.000000	3.801766
4780.000000	3.809319
4778.000000	3.816443
4776.000000	3.822404
4774.000000	3.829137
4772.000000	3.837110
4770.000000	3.843817
4768.000000	3.849269
4766.000000	3.854623
4764.000000	3.860526
4762.000000	3.866937
4760.000000	3.874062
4758.000000	3.879776
4756.000000	3.884885
4754.000000	3.891421
4752.000000	3.898627
4750.000000	3.905392
4748.000000	3.912433
4746.000000	3.919782
4744.000000	3.925829
4742.000000	3.930979
4740.000000	3.935906
4738.000000	3.941400
4736.000000	3.948969
4734.000000	3.957676
4732.000000	3.964706
4730.000000	3.969727
4728.000000	3.974382
4726.000000	3.978913
4724.000000	3.984082
4722.000000	3.990340
4720.000000	3.997882
4718.000000	4.006086
4716.000000	4.015267
4714.000000	4.023409
4712.000000	4.029019
4710.000000	4.033112
4708.000000	4.038362
4706.000000	4.045656
4704.000000	4.053841
4702.000000	4.061430
4700.000000	4.067579
4698.000000	4.072983
4696.000000	4.079342
4694.000000	4.086310
4692.000000	4.093109
4690.000000	4.098878
4688.000000	4.104836
4686.000000	4.111603
4684.000000	4.118623
4682.000000	4.124546
4680.000000	4.130534
4678.000000	4.137625
4676.000000	4.144340
4674.000000	4.150358
4672.000000	4.156140
4670.000000	4.161405
4668.000000	4.166776
4666.000000	4.173620
4664.000000	4.181148
4662.000000	4.187790
4660.000000	4.193949
4658.000000	4.200556
4656.000000	4.207442
4654.000000	4.212795
4652.000000	4.217297
4650.000000	4.222812
4648.000000	4.229045
4646.000000	4.234934
4644.000000	4.241454
4642.000000	4.248890
4640.000000	4.256421
4638.000000	4.262732
4636.000000	4.267632
4634.000000	4.272900
4632.000000	4.279768
4630.000000	4.286002
4628.000000	4.291221
4626.000000	4.296752
4624.000000	4.301851
4622.000000	4.306938
4620.000000	4.314557
4618.000000	4.323251
4616.000000	4.329462
4614.000000	4.334368
4612.000000	4.340107
4610.000000	4.347662
4608.000000	4.354521
4606.000000	4.360333
4604.000000	4.365796
4602.000000	4.370836
4600.000000	4.375604
4598.000000	4.382249
4596.000000	4.389517
4594.000000	4.395560
4592.000000	4.401474
4590.000000	4.407692
4588.000000	4.414736
4586.000000	4.422287
4584.000000	4.429051
4582.000000	4.435037
4580.000000	4.440912
4578.000000	4.446069
4576.000000	4.449992
4574.000000	4.455401
4572.000000	4.463680
4570.000000	4.471100
4568.000000	4.475932
4566.000000	4.481887
4564.000000	4.488268
4562.000000	4.493042
4560.000000	4.497564
4558.000000	4.503586
4556.000000	4.510798
4554.000000	4.518786
4552.000000	4.525420
4550.000000	4.530003
4548.000000	4.534611
4546.000000	4.540398
4544.000000	4.545907
4542.000000	4.551471
4540.000000	4.558655
4538.000000	4.566020
4536.000000	4.571588
4534.000000	4.575491
4532.000000	4.580181
4530.000000	4.587460
4528.000000	4.595309
4526.000000	4.601177
4524.000000	4.605937
4522.000000	4.612419
4520.000000	4.619610
4518.000000	4.625038
4516.000000	4.629710
4514.000000	4.634787
4512.000000	4.639973
4510.000000	4.646692
4508.000000	4.653990
4506.000000	4.659101
4504.000000	4.664558
4502.000000	4.672511
4500.000000	4.679775
4498.000000	4.684545
4496.000000	4.689120
4494.000000	4.695051
4492.000000	4.701824
4490.000000	4.709104
4488.000000	4.717210
4486.000000	4.724731
4484.000000	4.730375
4482.000000	4.735514
4480.000000	4.740584
4478.000000	4.745634
4476.000000	4.752085
4474.000000	4.758483
4472.000000	4.763191
4470.000000	4.767664
4468.000000	4.772433
4466.000000	4.778157
4464.000000	4.784784
4462.000000	4.790129
4460.000000	4.794664
4458.000000	4.800084
4456.000000	4.806458
4454.000000	4.812968
4452.000000	4.819288
4450.000000	4.825472
4448.000000	4.831032
4446.000000	4.835887
4444.000000	4.841422
4442.000000	4.847728
4440.000000	4.853076
4438.000000	4.858204
4436.000000	4.864515
4434.000000	4.870323
4432.000000	4.874192
4430.000000	4.879574
4428.000000	4.887152
4426.000000	4.893387
4424.000000	4.896990
4422.000000	4.901070
4420.000000	4.907082
4418.000000	4.912432
4416.000000	4.916317
4414.000000	4.922056
4412.000000	4.928832
4410.000000	4.935046
4408.000000	4.942350
4406.000000	4.948614
4404.000000	4.951579
4402.000000	4.955842
4400.000000	4.963192
4398.000000	4.969529
4396.000000	4.974214
4394.000000	4.979534
4392.000000	4.985263
4390.000000	4.990542
4388.000000	4.995124
4386.000000	5.000016
4384.000000	5.005850
4382.000000	5.011796
4380.000000	5.017254
4378.000000	5.021484
4376.000000	5.024586
4374.000000	5.028319
4372.000000	5.033128
4370.000000	5.038175
4368.000000	5.043653
4366.000000	5.047808
4364.000000	5.050478
4362.000000	5.054817
4360.000000	5.060682
4358.000000	5.064944
4356.000000	5.069337
4354.000000	5.076016
4352.000000	5.082792
4350.000000	5.088819
4348.000000	5.093391
4346.000000	5.095656
4344.000000	5.098664
4342.000000	5.105184
4340.000000	5.111871
4338.000000	5.115550
4336.000000	5.118603
4334.000000	5.123980
4332.000000	5.131215
4330.000000	5.137132
4328.000000	5.140584
4326.000000	5.143240
4324.000000	5.146929
4322.000000	5.152425
4320.000000	5.158646
4318.000000	5.164196
4316.000000	5.168934
4314.000000	5.172992
4312.000000	5.177561
4310.000000	5.183314
4308.000000	5.188580
4306.000000	5.193188
4304.000000	5.198152
4302.000000	5.203666
4300.000000	5.208385
4298.000000	5.212146
4296.000000	5.216696
4294.000000	5.222844
4292.000000	5.228483
4290.000000	5.232888
4288.000000	5.237844
4286.000000	5.243052
4284.000000	5.246951
4282.000000	5.250670
4280.000000	5.255553
4278.000000	5.261202
4276.000000	5.265782
4274.000000	5.269496
4272.000000	5.272722
4270.000000	5.275506
4268.000000	5.279838
4266.000000	5.285398
4264.000000	5.290186
4262.000000	5.294966
4260.000000	5.299424
4258.000000	5.303550
4256.000000	5.308774
4254.000000	5.315473
4252.000000	5.321963
4250.000000	5.326170
4248.000000	5.329112
4246.000000	5.333367
4244.000000	5.337729
4242.000000	5.342636
4240.000000	5.348960
4238.000000	5.353244
4236.000000	5.356263
4234.000000	5.362807
4232.000000	5.370466
4230.000000	5.374860
4228.000000	5.378407
4226.000000	5.384073
4224.000000	5.388942
4222.000000	5.391978
4220.000000	5.396500
4218.000000	5.402255
4216.000000	5.407031
4214.000000	5.411520
4212.000000	5.416872
4210.000000	5.422312
4208.000000	5.426902
4206.000000	5.432785
4204.000000	5.439704
4202.000000	5.444756
4200.000000	5.449456
4198.000000	5.454780
4196.000000	5.460171
4194.000000	5.465658
4192.000000	5.470899
4190.000000	5.476351
4188.000000	5.482881
4186.000000	5.489688
4184.000000	5.496352
4182.000000	5.502030
4180.000000	5.506987
4178.000000	5.511798
4176.000000	5.517033
4174.000000	5.522336
4172.000000	5.527160
4170.000000	5.531776
4168.000000	5.537461
4166.000000	5.542668
4164.000000	5.546295
4162.000000	5.550931
4160.000000	5.556817
4158.000000	5.561987
4156.000000	5.568098
4154.000000	5.574716
4152.000000	5.579845
4150.000000	5.584065
4148.000000	5.588692
4146.000000	5.593899
4144.000000	5.599469
4142.000000	5.605977
4140.000000	5.613046
4138.000000	5.619297
4136.000000	5.624914
4134.000000	5.629306
4132.000000	5.632797
4130.000000	5.637748
4128.000000	5.644888
4126.000000	5.651665
4124.000000	5.656054
4122.000000	5.659697
4120.000000	5.664994
4118.000000	5.671905
4116.000000	5.678134
4114.000000	5.683060
4112.000000	5.688294
4110.000000	5.694535
4108.000000	5.700582
4106.000000	5.706454
4104.000000	5.713141
4102.000000	5.719642
4100.000000	5.723821
4098.000000	5.727552
4096.000000	5.732355
4094.000000	5.736991
4092.000000	5.742161
4090.000000	5.748148
4088.000000	5.753790
4086.000000	5.759769
4084.000000	5.766314
4082.000000	5.773250
4080.000000	5.779092
4078.000000	5.784592
4076.000000	5.790568
4074.000000	5.795273
4072.000000	5.799324
4070.000000	5.803741
4068.000000	5.808556
4066.000000	5.814360
4064.000000	5.820585
4062.000000	5.825608
4060.000000	5.829836
4058.000000	5.835999
4056.000000	5.842488
4054.000000	5.846830
4052.000000	5.850475
4050.000000	5.854741
4048.000000	5.860478
4046.000000	5.867479
4044.000000	5.872932
4042.000000	5.878205
4040.000000	5.885411
4038.000000	5.891352
4036.000000	5.895584
4034.000000	5.900939
4032.000000	5.906788
4030.000000	5.912660
4028.000000	5.917559
4026.000000	5.921305
4024.000000	5.926972
4022.000000	5.933814
4020.000000	5.939836
4018.000000	5.946936
4016.000000	5.953818
4014.000000	5.959249
4012.000000	5.965262
4010.000000	5.970768
4008.000000	5.975535
4006.000000	5.983328
4004.000000	5.992282
4002.000000	5.999428
4000.000000	6.006130
3998.000000	6.011955
3996.000000	6.016868
3994.000000	6.022645
3992.000000	6.028406
3990.000000	6.034099
3988.000000	6.040975
3986.000000	6.047632
3984.000000	6.052242
3982.000000	6.057926
3980.000000	6.065122
3978.000000	6.070853
3976.000000	6.075768
3974.000000	6.081666
3972.000000	6.089689
3970.000000	6.098224
3968.000000	6.104896
3966.000000	6.111058
3964.000000	6.116192
3962.000000	6.122248
3960.000000	6.130464
3958.000000	6.137920
3956.000000	6.144136
3954.000000	6.150020
3952.000000	6.156916
3950.000000	6.164774
3948.000000	6.172030
3946.000000	6.179035
3944.000000	6.186375
3942.000000	6.195756
3940.000000	6.206769
3938.000000	6.215277
3936.000000	6.219223
3934.000000	6.222999
3932.000000	6.231168
3930.000000	6.242854
3928.000000	6.253230
3926.000000	6.260392
3924.000000	6.267737
3922.000000	6.275087
3920.000000	6.280716
3918.000000	6.288500
3916.000000	6.301671
3914.000000	6.316932
3912.000000	6.329529
3910.000000	6.337568
3908.000000	6.337269
3906.000000	6.328596
3904.000000	6.323645
3902.000000	6.332004
3900.000000	6.352017
3898.000000	6.376949
3896.000000	6.393666
3894.000000	6.393739
3892.000000	6.393530
3890.000000	6.403730
3888.000000	6.406552
3886.000000	6.407510
3884.000000	6.421537
3882.000000	6.436428
3880.000000	6.449879
3878.000000	6.461256
3876.000000	6.464746
3874.000000	6.461192
3872.000000	6.452075
3870.000000	6.456583
3868.000000	6.475932
3866.000000	6.488966
3864.000000	6.501023
3862.000000	6.518702
3860.000000	6.531827
3858.000000	6.514944
3856.000000	6.460889
3854.000000	6.437042
3852.000000	6.487149
3850.000000	6.554299
3848.000000	6.586406
3846.000000	6.591612
3844.000000	6.590363
3842.000000	6.579715
3840.000000	6.557441
3838.000000	6.555187
3836.000000	6.583773
3834.000000	6.612217
3832.000000	6.629920
3830.000000	6.645109
3828.000000	6.655848
3826.000000	6.659444
3824.000000	6.648469
3822.000000	6.637410
3820.000000	6.641892
3818.000000	6.643111
3816.000000	6.655973
3814.000000	6.693334
3812.000000	6.717783
3810.000000	6.711079
3808.000000	6.699619
3806.000000	6.703571
3804.000000	6.697120
3802.000000	6.690373
3800.000000	6.715150
3798.000000	6.744437
3796.000000	6.761143
3794.000000	6.774315
3792.000000	6.783089
3790.000000	6.790136
3788.000000	6.794622
3786.000000	6.795466
3784.000000	6.798113
3782.000000	6.800168
3780.000000	6.803732
3778.000000	6.813953
3776.000000	6.823876
3774.000000	6.827396
3772.000000	6.822685
3770.000000	6.819064
3768.000000	6.823633
3766.000000	6.834436
3764.000000	6.845221
3762.000000	6.846076
3760.000000	6.843807
3758.000000	6.848318
3756.000000	6.840704
3754.000000	6.804412
3752.000000	6.772851
3750.000000	6.781914
3748.000000	6.793832
3746.000000	6.779383
3744.000000	6.798271
3742.000000	6.852709
3740.000000	6.872897
3738.000000	6.855667
3736.000000	6.844650
3734.000000	6.852393
3732.000000	6.872614
3730.000000	6.894977
3728.000000	6.902494
3726.000000	6.903193
3724.000000	6.907862
3722.000000	6.914895
3720.000000	6.921933
3718.000000	6.925101
3716.000000	6.915583
3714.000000	6.891164
3712.000000	6.878279
3710.000000	6.891874
3708.000000	6.911989
3706.000000	6.917592
3704.000000	6.906713
3702.000000	6.897033
3700.000000	6.896379
3698.000000	6.895239
3696.000000	6.887795
3694.000000	6.868745
3692.000000	6.832750
3690.000000	6.798947
3688.000000	6.801496
3686.000000	6.825629
3684.000000	6.830279
3682.000000	6.812684
3680.000000	6.778784
3678.000000	6.726795
3676.000000	6.690960
3674.000000	6.686160
3672.000000	6.673037
3670.000000	6.662700
3668.000000	6.673598
3666.000000	6.678420
3664.000000	6.666297
3662.000000	6.646995
3660.000000	6.619196
3658.000000	6.583895
3656.000000	6.561550
3654.000000	6.541130
3652.000000	6.496255
3650.000000	6.457470
3648.000000	6.456394
3646.000000	6.470267
3644.000000	6.470233
3642.000000	6.456763
3640.000000	6.441994
3638.000000	6.427290
3636.000000	6.408851
3634.000000	6.385172
3632.000000	6.345981
3630.000000	6.307442
3628.000000	6.305509
3626.000000	6.322137
3624.000000	6.319221
3622.000000	6.294182
3620.000000	6.270932
3618.000000	6.263687
3616.000000	6.257464
3614.000000	6.244540
3612.000000	6.228208
3610.000000	6.211936
3608.000000	6.207483
3606.000000	6.209816
3604.000000	6.204811
3602.000000	6.194945
3600.000000	6.185294
3598.000000	6.174194
3596.000000	6.162443
3594.000000	6.154471
3592.000000	6.145516
3590.000000	6.128253
3588.000000	6.115605
3586.000000	6.116990
3584.000000	6.119760
3582.000000	6.117445
3580.000000	6.112947
3578.000000	6.108127
3576.000000	6.101846
3574.000000	6.095329
3572.000000	6.087670
3570.000000	6.072303
3568.000000	6.059474
3566.000000	6.060299
3564.000000	6.064858
3562.000000	6.064632
3560.000000	6.062050
3558.000000	6.059687
3556.000000	6.055299
3554.000000	6.049453
3552.000000	6.045271
3550.000000	6.040998
3548.000000	6.034126
3546.000000	6.028053
3544.000000	6.025889
3542.000000	6.025352
3540.000000	6.021603
3538.000000	6.016151
3536.000000	6.013083
3534.000000	6.010580
3532.000000	6.007067
3530.000000	6.002678
3528.000000	5.996062
3526.000000	5.987170
3524.000000	5.980797
3522.000000	5.978150
3520.000000	5.973837
3518.000000	5.967705
3516.000000	5.961604
3514.000000	5.955214
3512.000000	5.949661
3510.000000	5.945049
3508.000000	5.938344
3506.000000	5.928390
3504.000000	5.917788
3502.000000	5.910426
3500.000000	5.905924
3498.000000	5.900436
3496.000000	5.893311
3494.000000	5.885005
3492.000000	5.876216
3490.000000	5.868892
3488.000000	5.862360
3486.000000	5.855608
3484.000000	5.848123
3482.000000	5.841137
3480.000000	5.836555
3478.000000	5.833223
3476.000000	5.828864
3474.000000	5.825201
3472.000000	5.822157
3470.000000	5.818312
3468.000000	5.815472
3466.000000	5.813320
3464.000000	5.811149
3462.000000	5.810778
3460.000000	5.811446
3458.000000	5.810847
3456.000000	5.809656
3454.000000	5.806930
3452.000000	5.802861
3450.000000	5.800064
3448.000000	5.798603
3446.000000	5.799667
3444.000000	5.802086
3442.000000	5.802429
3440.000000	5.802691
3438.000000	5.806069
3436.000000	5.812073
3434.000000	5.819187
3432.000000	5.826470
3430.000000	5.833875
3428.000000	5.842075
3426.000000	5.850186
3424.000000	5.857026
3422.000000	5.863345
3420.000000	5.869585
3418.000000	5.875365
3416.000000	5.879521
3414.000000	5.882537
3412.000000	5.885191
3410.000000	5.887328
3408.000000	5.889137
3406.000000	5.892409
3404.000000	5.895525
3402.000000	5.895935
3400.000000	5.897718
3398.000000	5.902063
3396.000000	5.905564
3394.000000	5.909007
3392.000000	5.913207
3390.000000	5.918375
3388.000000	5.923585
3386.000000	5.926156
3384.000000	5.928305
3382.000000	5.930384
3380.000000	5.932647
3378.000000	5.936530
3376.000000	5.940774
3374.000000	5.943926
3372.000000	5.945230
3370.000000	5.946233
3368.000000	5.947956
3366.000000	5.950412
3364.000000	5.953243
3362.000000	5.955911
3360.000000	5.958671
3358.000000	5.961985
3356.000000	5.964033
3354.000000	5.966352
3352.000000	5.970368
3350.000000	5.972643
3348.000000	5.972899
3346.000000	5.973986
3344.000000	5.976759
3342.000000	5.979049
3340.000000	5.980730
3338.000000	5.982476
3336.000000	5.985474
3334.000000	5.988362
3332.000000	5.989986
3330.000000	5.992494
3328.000000	5.994567
3326.000000	5.994610
3324.000000	5.996450
3322.000000	6.001048
3320.000000	6.004556
3318.000000	6.005150
3316.000000	6.005467
3314.000000	6.005684
3312.000000	6.007239
3310.000000	6.009162
3308.000000	6.010191
3306.000000	6.011252
3304.000000	6.011627
3302.000000	6.012927
3300.000000	6.015445
3298.000000	6.017772
3296.000000	6.018812
3294.000000	6.019257
3292.000000	6.020596
3290.000000	6.023406
3288.000000	6.026012
3286.000000	6.028242
3284.000000	6.031484
3282.000000	6.034271
3280.000000	6.035322
3278.000000	6.036653
3276.000000	6.036924
3274.000000	6.036607
3272.000000	6.039576
3270.000000	6.042540
3268.000000	6.043992
3266.000000	6.046838
3264.000000	6.049745
3262.000000	6.050929
3260.000000	6.051750
3258.000000	6.054425
3256.000000	6.058406
3254.000000	6.061467
3252.000000	6.063231
3250.000000	6.065954
3248.000000	6.068399
3246.000000	6.070055
3244.000000	6.072932
3242.000000	6.076476
3240.000000	6.079369
3238.000000	6.081579
3236.000000	6.084696
3234.000000	6.087868
3232.000000	6.089203
3230.000000	6.092587
3228.000000	6.097351
3226.000000	6.099539
3224.000000	6.102279
3222.000000	6.106015
3220.000000	6.108358
3218.000000	6.110181
3216.000000	6.111979
3214.000000	6.114517
3212.000000	6.118522
3210.000000	6.122327
3208.000000	6.127264
3206.000000	6.133224
3204.000000	6.137269
3202.000000	6.140306
3200.000000	6.143961
3198.000000	6.149466
3196.000000	6.154106
3194.000000	6.156525
3192.000000	6.160807
3190.000000	6.167165
3188.000000	6.173393
3186.000000	6.177204
3184.000000	6.181121
3182.000000	6.187954
3180.000000	6.193718
3178.000000	6.195751
3176.000000	6.199795
3174.000000	6.206510
3172.000000	6.211390
3170.000000	6.215284
3168.000000	6.219736
3166.000000	6.224103
3164.000000	6.228751
3162.000000	6.234713
3160.000000	6.240592
3158.000000	6.245050
3156.000000	6.249583
3154.000000	6.253691
3152.000000	6.258158
3150.000000	6.264213
3148.000000	6.270148
3146.000000	6.276207
3144.000000	6.282254
3142.000000	6.286559
3140.000000	6.290210
3138.000000	6.295487
3136.000000	6.301526
3134.000000	6.306406
3132.000000	6.310731
3130.000000	6.314567
3128.000000	6.318406
3126.000000	6.323518
3124.000000	6.328035
3122.000000	6.329376
3120.000000	6.330779
3118.000000	6.334306
3116.000000	6.338481
3114.000000	6.342806
3112.000000	6.346651
3110.000000	6.348821
3108.000000	6.351176
3106.000000	6.356371
3104.000000	6.361025
3102.000000	6.364239
3100.000000	6.368500
3098.000000	6.371496
3096.000000	6.374984
3094.000000	6.380645
3092.000000	6.386197
3090.000000	6.390633
3088.000000	6.395358
3086.000000	6.399479
3084.000000	6.402719
3082.000000	6.405589
3080.000000	6.408727
3078.000000	6.412512
3076.000000	6.415139
3074.000000	6.415072
3072.000000	6.415921
3070.000000	6.417770
3068.000000	6.420049
3066.000000	6.421567
3064.000000	6.424037
3062.000000	6.427908
3060.000000	6.430528
3058.000000	6.434095
3056.000000	6.440302
3054.000000	6.445475
3052.000000	6.448837
3050.000000	6.451261
3048.000000	6.453897
3046.000000	6.456641
3044.000000	6.459562
3042.000000	6.463123
3040.000000	6.467076
3038.000000	6.470230
3036.000000	6.471066
3034.000000	6.471417
3032.000000	6.470537
3030.000000	6.468902
3028.000000	6.465574
3026.000000	6.458932
3024.000000	6.450352
3022.000000	6.442904
3020.000000	6.439601
3018.000000	6.443402
3016.000000	6.455528
3014.000000	6.475293
3012.000000	6.497427
3010.000000	6.517078
3008.000000	6.533304
3006.000000	6.545172
3004.000000	6.553535
3002.000000	6.560334
3000.000000	6.565928
2998.000000	6.569834
2996.000000	6.572344
2994.000000	6.576833
2992.000000	6.581739
2990.000000	6.583569
2988.000000	6.583460
2986.000000	6.582939
2984.000000	6.579590
2982.000000	6.573192
2980.000000	6.565504
2978.000000	6.555038
2976.000000	6.539461
2974.000000	6.518599
2972.000000	6.490820
2970.000000	6.455142
2968.000000	6.418080
2966.000000	6.385272
2964.000000	6.362296
2962.000000	6.355177
2960.000000	6.363986
2958.000000	6.381368
2956.000000	6.399853
2954.000000	6.418717
2952.000000	6.435220
2950.000000	6.443136
2948.000000	6.441442
2946.000000	6.431866
2944.000000	6.413441
2942.000000	6.387884
2940.000000	6.356005
2938.000000	6.323113
2936.000000	6.295602
2934.000000	6.271577
2932.000000	6.246071
2930.000000	6.220850
2928.000000	6.202446
2926.000000	6.197130
2924.000000	6.212023
2922.000000	6.249265
2920.000000	6.302723
2918.000000	6.364825
2916.000000	6.430702
2914.000000	6.493462
2912.000000	6.546367
2910.000000	6.587698
2908.000000	6.620942
2906.000000	6.648701
2904.000000	6.674624
2902.000000	6.700828
2900.000000	6.725549
2898.000000	6.747860
2896.000000	6.767308
2894.000000	6.787001
2892.000000	6.807093
2890.000000	6.825318
2888.000000	6.842084
2886.000000	6.856188
2884.000000	6.866484
2882.000000	6.873222
2880.000000	6.876699
2878.000000	6.876818
2876.000000	6.872001
2874.000000	6.862372
2872.000000	6.847386
2870.000000	6.822690
2868.000000	6.789366
2866.000000	6.751890
2864.000000	6.719885
2862.000000	6.702640
2860.000000	6.702177
2858.000000	6.719628
2856.000000	6.746248
2854.000000	6.775184
2852.000000	6.811693
2850.000000	6.855964
2848.000000	6.904270
2846.000000	6.952505
2844.000000	6.994748
2842.000000	7.028494
2840.000000	7.056051
2838.000000	7.080456
2836.000000	7.100146
2834.000000	7.116064
2832.000000	7.131345
2830.000000	7.144832
2828.000000	7.156182
2826.000000	7.167433
2824.000000	7.178724
2822.000000	7.188107
2820.000000	7.195929
2818.000000	7.205190
2816.000000	7.214859
2814.000000	7.222887
2812.000000	7.230474
2810.000000	7.237618
2808.000000	7.244083
2806.000000	7.250200
2804.000000	7.256942
2802.000000	7.263951
2800.000000	7.269125
2798.000000	7.273853
2796.000000	7.279552
2794.000000	7.286008
2792.000000	7.292897
2790.000000	7.298586
2788.000000	7.304093
2786.000000	7.313135
2784.000000	7.322825
2782.000000	7.330487
2780.000000	7.337670
2778.000000	7.344334
2776.000000	7.351586
2774.000000	7.357331
2772.000000	7.362957
2770.000000	7.369897
2768.000000	7.373697
2766.000000	7.377804
2764.000000	7.383728
2762.000000	7.388825
2760.000000	7.394699
2758.000000	7.400627
2756.000000	7.405893
2754.000000	7.409962
2752.000000	7.413790
2750.000000	7.418636
2748.000000	7.422446
2746.000000	7.426088
2744.000000	7.430387
2742.000000	7.433428
2740.000000	7.435777
2738.000000	7.439259
2736.000000	7.442724
2734.000000	7.445008
2732.000000	7.448162
2730.000000	7.450865
2728.000000	7.453796
2726.000000	7.457561
2724.000000	7.461087
2722.000000	7.463323
2720.000000	7.465037
2718.000000	7.468336
2716.000000	7.472347
2714.000000	7.474874
2712.000000	7.475711
2710.000000	7.476897
2708.000000	7.479106
2706.000000	7.481689
2704.000000	7.484483
2702.000000	7.487720
2700.000000	7.490223
2698.000000	7.491898
2696.000000	7.494864
2694.000000	7.497869
2692.000000	7.500660
2690.000000	7.502934
2688.000000	7.505082
2686.000000	7.508006
2684.000000	7.510596
2682.000000	7.511747
2680.000000	7.513041
2678.000000	7.514742
2676.000000	7.515640
2674.000000	7.516480
2672.000000	7.517770
2670.000000	7.518111
2668.000000	7.517667
2666.000000	7.518423
2664.000000	7.519713
2662.000000	7.520949
2660.000000	7.521408
2658.000000	7.521446
2656.000000	7.523672
2654.000000	7.525158
2652.000000	7.525442
2650.000000	7.526050
2648.000000	7.526325
2646.000000	7.525527
2644.000000	7.526166
2642.000000	7.527643
2640.000000	7.528219
2638.000000	7.527670
2636.000000	7.526353
2634.000000	7.527453
2632.000000	7.529627
2630.000000	7.529303
2628.000000	7.528817
2626.000000	7.526953
2624.000000	7.525365
2622.000000	7.526436
2620.000000	7.527182
2618.000000	7.525919
2616.000000	7.523855
2614.000000	7.522178
2612.000000	7.522021
2610.000000	7.520721
2608.000000	7.518352
2606.000000	7.517044
2604.000000	7.516016
2602.000000	7.515306
2600.000000	7.512497
2598.000000	7.507230
2596.000000	7.504086
2594.000000	7.503279
2592.000000	7.502605
2590.000000	7.502313
2588.000000	7.503286
2586.000000	7.501933
2584.000000	7.501137
2582.000000	7.503356
2580.000000	7.505111
2578.000000	7.505317
2576.000000	7.506268
2574.000000	7.506747
2572.000000	7.506066
2570.000000	7.506238
2568.000000	7.505675
2566.000000	7.504140
2564.000000	7.503642
2562.000000	7.501723
2560.000000	7.499196
2558.000000	7.498204
2556.000000	7.496904
2554.000000	7.494006
2552.000000	7.490860
2550.000000	7.488967
2548.000000	7.487104
2546.000000	7.484413
2544.000000	7.482632
2542.000000	7.480055
2540.000000	7.476969
2538.000000	7.475484
2536.000000	7.472288
2534.000000	7.469703
2532.000000	7.467503
2530.000000	7.465247
2528.000000	7.463091
2526.000000	7.460942
2524.000000	7.458503
2522.000000	7.454973
2520.000000	7.452277
2518.000000	7.449367
2516.000000	7.444585
2514.000000	7.441418
2512.000000	7.440277
2510.000000	7.437669
2508.000000	7.434093
2506.000000	7.430874
2504.000000	7.426856
2502.000000	7.423726
2500.000000	7.421509
2498.000000	7.419159
2496.000000	7.417730
2494.000000	7.416143
2492.000000	7.414074
2490.000000	7.411742
2488.000000	7.410813
2486.000000	7.408561
2484.000000	7.405886
2482.000000	7.405459
2480.000000	7.404127
2478.000000	7.400615
2476.000000	7.398767
2474.000000	7.397943
2472.000000	7.397142
2470.000000	7.394675
2468.000000	7.391931
2466.000000	7.391581
2464.000000	7.391770
2462.000000	7.389718
2460.000000	7.387001
2458.000000	7.385080
2456.000000	7.383294
2454.000000	7.381862
2452.000000	7.381137
2450.000000	7.380614
2448.000000	7.380714
2446.000000	7.380625
2444.000000	7.381773
2442.000000	7.384260
2440.000000	7.384683
2438.000000	7.383385
2436.000000	7.383968
2434.000000	7.385454
2432.000000	7.385267
2430.000000	7.385189
2428.000000	7.385776
2426.000000	7.386721
2424.000000	7.388811
2422.000000	7.392077
2420.000000	7.395261
2418.000000	7.398230
2416.000000	7.401506
2414.000000	7.404420
2412.000000	7.408314
2410.000000	7.412191
2408.000000	7.415153
2406.000000	7.417558
2404.000000	7.419734
2402.000000	7.421805
2400.000000	7.424541
2398.000000	7.427265
2396.000000	7.429926
2394.000000	7.432121
2392.000000	7.434942
2390.000000	7.436883
2388.000000	7.435228
2386.000000	7.434309
2384.000000	7.434911
2382.000000	7.431776
2380.000000	7.426412
2378.000000	7.420187
2376.000000	7.410216
2374.000000	7.395270
2372.000000	7.378311
2370.000000	7.360488
2368.000000	7.343748
2366.000000	7.330548
2364.000000	7.321131
2362.000000	7.317168
2360.000000	7.320012
2358.000000	7.329246
2356.000000	7.344423
2354.000000	7.364561
2352.000000	7.386981
2350.000000	7.400802
2348.000000	7.394846
2346.000000	7.372424
2344.000000	7.344013
2342.000000	7.318764
2340.000000	7.304356
2338.000000	7.306165
2336.000000	7.318015
2334.000000	7.326735
2332.000000	7.332799
2330.000000	7.338652
2328.000000	7.343208
2326.000000	7.347495
2324.000000	7.354073
2322.000000	7.362108
2320.000000	7.368329
2318.000000	7.372850
2316.000000	7.376252
2314.000000	7.377440
2312.000000	7.380610
2310.000000	7.383713
2308.000000	7.384735
2306.000000	7.385039
2304.000000	7.385371
2302.000000	7.384788
2300.000000	7.384330
2298.000000	7.384096
2296.000000	7.382695
2294.000000	7.382809
2292.000000	7.382354
2290.000000	7.379929
2288.000000	7.378438
2286.000000	7.376619
2284.000000	7.376281
2282.000000	7.375927
2280.000000	7.373635
2278.000000	7.371340
2276.000000	7.368834
2274.000000	7.365401
2272.000000	7.363315
2270.000000	7.360703
2268.000000	7.357978
2266.000000	7.355935
2264.000000	7.354941
2262.000000	7.353271
2260.000000	7.350668
2258.000000	7.348314
2256.000000	7.347580
2254.000000	7.346579
2252.000000	7.345363
2250.000000	7.344590
2248.000000	7.343961
2246.000000	7.343359
2244.000000	7.342507
2242.000000	7.341695
2240.000000	7.340118
2238.000000	7.338568
2236.000000	7.338724
2234.000000	7.339600
2232.000000	7.339810
2230.000000	7.338908
2228.000000	7.338736
2226.000000	7.338357
2224.000000	7.336177
2222.000000	7.335909
2220.000000	7.337236
2218.000000	7.336751
2216.000000	7.336496
2214.000000	7.338343
2212.000000	7.339895
2210.000000	7.338608
2208.000000	7.336243
2206.000000	7.334887
2204.000000	7.335985
2202.000000	7.337916
2200.000000	7.339633
2198.000000	7.339375
2196.000000	7.337420
2194.000000	7.337538
2192.000000	7.339550
2190.000000	7.340402
2188.000000	7.339792
2186.000000	7.339930
2184.000000	7.341453
2182.000000	7.343038
2180.000000	7.343166
2178.000000	7.342982
2176.000000	7.343958
2174.000000	7.344172
2172.000000	7.342699
2170.000000	7.341835
2168.000000	7.344492
2166.000000	7.349653
2164.000000	7.353046
2162.000000	7.353925
2160.000000	7.353335
2158.000000	7.354125
2156.000000	7.357345
2154.000000	7.358340
2152.000000	7.359447
2150.000000	7.362439
2148.000000	7.363834
2146.000000	7.364257
2144.000000	7.366287
2142.000000	7.367066
2140.000000	7.369118
2138.000000	7.372630
2136.000000	7.375866
2134.000000	7.379624
2132.000000	7.383079
2130.000000	7.384449
2128.000000	7.386351
2126.000000	7.389264
2124.000000	7.392601
2122.000000	7.395174
2120.000000	7.397448
2118.000000	7.399922
2116.000000	7.403389
2114.000000	7.409636
2112.000000	7.413866
2110.000000	7.416262
2108.000000	7.421011
2106.000000	7.426900
2104.000000	7.431690
2102.000000	7.435964
2100.000000	7.440255
2098.000000	7.443959
2096.000000	7.448341
2094.000000	7.453434
2092.000000	7.458923
2090.000000	7.463248
2088.000000	7.468309
2086.000000	7.474180
2084.000000	7.478768
2082.000000	7.483754
2080.000000	7.490875
2078.000000	7.495809
2076.000000	7.499917
2074.000000	7.504774
2072.000000	7.509572
2070.000000	7.515494
2068.000000	7.520716
2066.000000	7.526478
2064.000000	7.534194
2062.000000	7.540626
2060.000000	7.545137
2058.000000	7.550894
2056.000000	7.558037
2054.000000	7.564025
2052.000000	7.568919
2050.000000	7.574031
2048.000000	7.579645
2046.000000	7.585034
2044.000000	7.591834
2042.000000	7.598481
2040.000000	7.604713
2038.000000	7.608417
2036.000000	7.611448
2034.000000	7.615836
2032.000000	7.620132
2030.000000	7.624078
2028.000000	7.630092
2026.000000	7.636914
2024.000000	7.642553
2022.000000	7.645426
2020.000000	7.648049
2018.000000	7.651648
2016.000000	7.658171
2014.000000	7.664701
2012.000000	7.668646
2010.000000	7.672006
2008.000000	7.677917
2006.000000	7.683103
2004.000000	7.685410
2002.000000	7.688446
2000.000000	7.691505
1998.000000	7.693109
1996.000000	7.696771
1994.000000	7.698644
1992.000000	7.699472
1990.000000	7.703332
1988.000000	7.706722
1986.000000	7.708816
1984.000000	7.710393
1982.000000	7.711594
1980.000000	7.713149
1978.000000	7.713791
1976.000000	7.713292
1974.000000	7.713888
1972.000000	7.715305
1970.000000	7.714021
1968.000000	7.711265
1966.000000	7.711684
1964.000000	7.712748
1962.000000	7.709837
1960.000000	7.703625
1958.000000	7.702208
1956.000000	7.706572
1954.000000	7.708460
1952.000000	7.707618
1950.000000	7.705804
1948.000000	7.705453
1946.000000	7.702472
1944.000000	7.697091
1942.000000	7.695815
1940.000000	7.699495
1938.000000	7.699247
1936.000000	7.697725
1934.000000	7.696504
1932.000000	7.695180
1930.000000	7.693307
1928.000000	7.690912
1926.000000	7.687163
1924.000000	7.680495
1922.000000	7.675632
1920.000000	7.666460
1918.000000	7.658104
1916.000000	7.664027
1914.000000	7.664827
1912.000000	7.658910
1910.000000	7.652278
1908.000000	7.647233
1906.000000	7.643003
1904.000000	7.638137
1902.000000	7.633628
1900.000000	7.629885
1898.000000	7.623068
1896.000000	7.616817
1894.000000	7.613839
1892.000000	7.608623
1890.000000	7.600437
1888.000000	7.602301
1886.000000	7.605310
1884.000000	7.603128
1882.000000	7.600049
1880.000000	7.597712
1878.000000	7.595241
1876.000000	7.590785
1874.000000	7.586005
1872.000000	7.576133
1870.000000	7.556938
1868.000000	7.553735
1866.000000	7.563504
1864.000000	7.565782
1862.000000	7.561250
1860.000000	7.558592
1858.000000	7.555831
1856.000000	7.551669
1854.000000	7.545377
1852.000000	7.538334
1850.000000	7.530759
1848.000000	7.519889
1846.000000	7.493120
1844.000000	7.478214
1842.000000	7.495511
1840.000000	7.502443
1838.000000	7.494404
1836.000000	7.487504
1834.000000	7.478938
1832.000000	7.458486
1830.000000	7.440726
1828.000000	7.441096
1826.000000	7.434257
1824.000000	7.431165
1822.000000	7.433154
1820.000000	7.425929
1818.000000	7.414488
1816.000000	7.405368
1814.000000	7.395058
1812.000000	7.380881
1810.000000	7.369036
1808.000000	7.362382
1806.000000	7.352676
1804.000000	7.335948
1802.000000	7.314551
1800.000000	7.302581
1798.000000	7.297759
1796.000000	7.282159
1794.000000	7.245420
1792.000000	7.226786
1790.000000	7.237976
1788.000000	7.237381
1786.000000	7.218352
1784.000000	7.202077
1782.000000	7.187282
1780.000000	7.175755
1778.000000	7.167023
1776.000000	7.143150
1774.000000	7.094775
1772.000000	7.071719
1770.000000	7.082144
1768.000000	7.083660
1766.000000	7.086916
1764.000000	7.069094
1762.000000	7.043870
1760.000000	7.036438
1758.000000	7.021165
1756.000000	7.007941
1754.000000	6.985738
1752.000000	6.941007
1750.000000	6.925091
1748.000000	6.927167
1746.000000	6.919203
1744.000000	6.902482
1742.000000	6.877159
1740.000000	6.852779
1738.000000	6.841900
1736.000000	6.787614
1734.000000	6.744406
1732.000000	6.784477
1730.000000	6.815057
1728.000000	6.818724
1726.000000	6.811421
1724.000000	6.799861
1722.000000	6.784817
1720.000000	6.736436
1718.000000	6.679529
1716.000000	6.691852
1714.000000	6.727998
1712.000000	6.741738
1710.000000	6.731439
1708.000000	6.709252
1706.000000	6.686313
1704.000000	6.671775
1702.000000	6.612699
1700.000000	6.578108
1698.000000	6.588218
1696.000000	6.582903
1694.000000	6.635497
1692.000000	6.672310
1690.000000	6.665214
1688.000000	6.635165
1686.000000	6.556970
1684.000000	6.538639
1682.000000	6.603821
1680.000000	6.632214
1678.000000	6.617457
1676.000000	6.585431
1674.000000	6.587023
1672.000000	6.584677
1670.000000	6.563567
1668.000000	6.574386
1666.000000	6.585076
1664.000000	6.564314
1662.000000	6.555784
1660.000000	6.564568
1658.000000	6.553963
1656.000000	6.483957
1654.000000	6.372623
1652.000000	6.393593
1650.000000	6.474438
1648.000000	6.458311
1646.000000	6.445740
1644.000000	6.478914
1642.000000	6.491241
1640.000000	6.474154
1638.000000	6.426401
1636.000000	6.377486
1634.000000	6.399848
1632.000000	6.427677
1630.000000	6.412320
1628.000000	6.386416
1626.000000	6.359154
1624.000000	6.322269
1622.000000	6.300171
1620.000000	6.269494
1618.000000	6.203171
1616.000000	6.176650
1614.000000	6.180578
1612.000000	6.144584
1610.000000	6.103116
1608.000000	6.084276
1606.000000	6.086909
1604.000000	6.099881
1602.000000	6.117620
1600.000000	6.135059
1598.000000	6.150244
1596.000000	6.160236
1594.000000	6.167714
1592.000000	6.172009
1590.000000	6.172334
1588.000000	6.169600
1586.000000	6.164704
1584.000000	6.158890
1582.000000	6.154357
1580.000000	6.142886
1578.000000	6.095315
1576.000000	6.068700
1574.000000	6.110523
1572.000000	6.118016
1570.000000	6.094196
1568.000000	6.095430
1566.000000	6.092512
1564.000000	6.069184
1562.000000	5.998697
1560.000000	5.897307
1558.000000	5.906169
1556.000000	5.976322
1554.000000	6.015703
1552.000000	6.048460
1550.000000	6.069164
1548.000000	6.079409
1546.000000	6.071748
1544.000000	6.053067
1542.000000	6.016063
1540.000000	6.002628
1538.000000	6.074799
1536.000000	6.135040
1534.000000	6.138131
1532.000000	6.158097
1530.000000	6.172955
1528.000000	6.161882
1526.000000	6.146851
1524.000000	6.125533
1522.000000	6.088908
1520.000000	6.095941
1518.000000	6.109775
1516.000000	6.104490
1514.000000	6.097951
1512.000000	6.081763
1510.000000	6.045327
1508.000000	5.965953
1506.000000	5.928788
1504.000000	5.942290
1502.000000	5.873179
1500.000000	5.695420
1498.000000	5.467753
1496.000000	5.304743
1494.000000	5.287767
1492.000000	5.368337
1490.000000	5.492921
1488.000000	5.627077
1486.000000	5.735892
1484.000000	5.806194
1482.000000	5.839869
1480.000000	5.853551
1478.000000	5.846779
1476.000000	5.823392
1474.000000	5.788433
1472.000000	5.778590
1470.000000	5.794032
1468.000000	5.780463
1466.000000	5.740058
1464.000000	5.715052
1462.000000	5.694074
1460.000000	5.624524
1458.000000	5.513043
1456.000000	5.447097
1454.000000	5.423331
1452.000000	5.392594
1450.000000	5.403442
1448.000000	5.464549
1446.000000	5.530204
1444.000000	5.560174
1442.000000	5.566750
1440.000000	5.560225
1438.000000	5.535650
1436.000000	5.537616
1434.000000	5.568222
1432.000000	5.573393
1430.000000	5.571875
1428.000000	5.576721
1426.000000	5.575078
1424.000000	5.565708
1422.000000	5.548949
1420.000000	5.514283
1418.000000	5.513436
1416.000000	5.525895
1414.000000	5.517096
1412.000000	5.492839
1410.000000	5.456029
1408.000000	5.402623
1406.000000	5.346578
1404.000000	5.318214
1402.000000	5.323038
1400.000000	5.340499
1398.000000	5.372359
1396.000000	5.397986
1394.000000	5.422771
1392.000000	5.447204
1390.000000	5.444426
1388.000000	5.419571
1386.000000	5.400455
1384.000000	5.397335
1382.000000	5.409275
1380.000000	5.418585
1378.000000	5.414330
1376.000000	5.402539
1374.000000	5.395660
1372.000000	5.394805
1370.000000	5.387603
1368.000000	5.378158
1366.000000	5.369483
1364.000000	5.356249
1362.000000	5.345120
1360.000000	5.338015
1358.000000	5.328741
1356.000000	5.315439
1354.000000	5.302045
1352.000000	5.289321
1350.000000	5.276213
1348.000000	5.262046
1346.000000	5.246462
1344.000000	5.229858
1342.000000	5.211338
1340.000000	5.195619
1338.000000	5.187667
1336.000000	5.181865
1334.000000	5.174114
1332.000000	5.164838
1330.000000	5.152735
1328.000000	5.137908
1326.000000	5.122247
1324.000000	5.105823
1322.000000	5.085559
1320.000000	5.063172
1318.000000	5.043643
1316.000000	5.024250
1314.000000	5.002302
1312.000000	4.981663
1310.000000	4.962418
1308.000000	4.940320
1306.000000	4.916641
1304.000000	4.892991
1302.000000	4.870112
1300.000000	4.845559
1298.000000	4.823180
1296.000000	4.801076
1294.000000	4.776566
1292.000000	4.748829
1290.000000	4.721165
1288.000000	4.693905
1286.000000	4.665579
1284.000000	4.637715
1282.000000	4.609195
1280.000000	4.576312
1278.000000	4.542067
1276.000000	4.503849
1274.000000	4.458845
1272.000000	4.405871
1270.000000	4.339781
1268.000000	4.255046
1266.000000	4.153558
1264.000000	4.049057
1262.000000	3.967614
1260.000000	3.931808
1258.000000	3.939098
1256.000000	3.966792
1254.000000	3.991514
1252.000000	3.997264
1250.000000	3.983179
1248.000000	3.956150
1246.000000	3.923938
1244.000000	3.887670
1242.000000	3.851539
1240.000000	3.817514
1238.000000	3.782865
1236.000000	3.748399
1234.000000	3.716607
1232.000000	3.686060
1230.000000	3.655792
1228.000000	3.625733
1226.000000	3.594841
1224.000000	3.561523
1222.000000	3.527499
1220.000000	3.493620
1218.000000	3.458374
1216.000000	3.423098
1214.000000	3.387132
1212.000000	3.351640
1210.000000	3.320910
1208.000000	3.293832
1206.000000	3.265661
1204.000000	3.236150
1202.000000	3.208173
1200.000000	3.180426
1198.000000	3.153678
1196.000000	3.126243
1194.000000	3.095639
1192.000000	3.063809
1190.000000	3.034380
1188.000000	3.004008
1186.000000	2.970376
1184.000000	2.927874
1182.000000	2.875971
1180.000000	2.837146
1178.000000	2.820631
1176.000000	2.803469
1174.000000	2.776608
1172.000000	2.744923
1170.000000	2.712307
1168.000000	2.680093
1166.000000	2.646751
1164.000000	2.612543
1162.000000	2.579814
1160.000000	2.548574
1158.000000	2.518621
1156.000000	2.489288
1154.000000	2.459762
1152.000000	2.429162
1150.000000	2.398866
1148.000000	2.368002
1146.000000	2.338041
1144.000000	2.310239
1142.000000	2.283111
1140.000000	2.259896
1138.000000	2.237822
1136.000000	2.213475
1134.000000	2.186264
1132.000000	2.157011
1130.000000	2.126282
1128.000000	2.097316
1126.000000	2.069338
1124.000000	2.038409
1122.000000	2.006653
1120.000000	1.975719
1118.000000	1.942944
1116.000000	1.908767
1114.000000	1.876492
1112.000000	1.844580
1110.000000	1.809683
1108.000000	1.776153
1106.000000	1.745914
1104.000000	1.715802
1102.000000	1.686669
1100.000000	1.658263
1098.000000	1.629138
1096.000000	1.600833
1094.000000	1.574376
1092.000000	1.548154
1090.000000	1.523872
1088.000000	1.501096
1086.000000	1.478639
1084.000000	1.455196
1082.000000	1.430304
1080.000000	1.408413
1078.000000	1.388537
1076.000000	1.369734
1074.000000	1.354638
1072.000000	1.340509
1070.000000	1.325512
1068.000000	1.311467
1066.000000	1.297516
1064.000000	1.283641
1062.000000	1.269424
1060.000000	1.252960
1058.000000	1.233557
1056.000000	1.206439
1054.000000	1.170086
1052.000000	1.137191
1050.000000	1.119894
1048.000000	1.119719
1046.000000	1.125962
1044.000000	1.125900
1042.000000	1.117300
1040.000000	1.105010
1038.000000	1.091740
1036.000000	1.076727
1034.000000	1.059369
1032.000000	1.040845
1030.000000	1.023252
1028.000000	1.006029
1026.000000	0.988044
1024.000000	0.969002
1022.000000	0.949338
1020.000000	0.930811
1018.000000	0.913734
1016.000000	0.898642
1014.000000	0.885425
1012.000000	0.874392
1010.000000	0.865463
1008.000000	0.854214
1006.000000	0.841114
1004.000000	0.828723
1002.000000	0.814194
1000.000000	0.796788
