PE IR       SUBTECH     SPECTRUM    ASCII       PEDS        4.00        
   -1
TE109A_041_110K_BG.ASC
20/04/21
15:05:58.00
20/04/21
15:05:58.00
Administrator
TE109A, Tuesday, April 21 2020, 041.
1000.000000
#HDR
-1
-1
#GR
cm-1
EGY
1.0
0.0
6000.000000
-2.000000
2501
8
105.369167
10.938888
#DATA
6000.000000	16.464370
5998.000000	16.499545
5996.000000	16.533574
5994.000000	16.566683
5992.000000	16.599209
5990.000000	16.630771
5988.000000	16.663019
5986.000000	16.695041
5984.000000	16.728258
5982.000000	16.763667
5980.000000	16.797139
5978.000000	16.829060
5976.000000	16.859602
5974.000000	16.891932
5972.000000	16.927565
5970.000000	16.963099
5968.000000	16.997255
5966.000000	17.030969
5964.000000	17.065403
5962.000000	17.098001
5960.000000	17.129470
5958.000000	17.161746
5956.000000	17.196522
5954.000000	17.232875
5952.000000	17.267185
5950.000000	17.301146
5948.000000	17.335977
5946.000000	17.371424
5944.000000	17.406752
5942.000000	17.440931
5940.000000	17.474199
5938.000000	17.506452
5936.000000	17.537648
5934.000000	17.569576
5932.000000	17.603223
5930.000000	17.637607
5928.000000	17.671939
5926.000000	17.706294
5924.000000	17.739880
5922.000000	17.774800
5920.000000	17.810575
5918.000000	17.846872
5916.000000	17.883072
5914.000000	17.918359
5912.000000	17.954256
5910.000000	17.991432
5908.000000	18.028164
5906.000000	18.064460
5904.000000	18.100593
5902.000000	18.137088
5900.000000	18.173525
5898.000000	18.211177
5896.000000	18.247269
5894.000000	18.283576
5892.000000	18.318980
5890.000000	18.355536
5888.000000	18.392244
5886.000000	18.428081
5884.000000	18.462595
5882.000000	18.496619
5880.000000	18.531782
5878.000000	18.568686
5876.000000	18.605990
5874.000000	18.641771
5872.000000	18.676792
5870.000000	18.713691
5868.000000	18.752554
5866.000000	18.791321
5864.000000	18.827534
5862.000000	18.863143
5860.000000	18.899073
5858.000000	18.935725
5856.000000	18.973618
5854.000000	19.012127
5852.000000	19.051283
5850.000000	19.091097
5848.000000	19.131371
5846.000000	19.172019
5844.000000	19.212028
5842.000000	19.250219
5840.000000	19.290052
5838.000000	19.332141
5836.000000	19.374826
5834.000000	19.416485
5832.000000	19.456765
5830.000000	19.497339
5828.000000	19.539048
5826.000000	19.581619
5824.000000	19.622499
5822.000000	19.663125
5820.000000	19.702958
5818.000000	19.743264
5816.000000	19.783846
5814.000000	19.824805
5812.000000	19.864668
5810.000000	19.904284
5808.000000	19.945283
5806.000000	19.987856
5804.000000	20.030559
5802.000000	20.070181
5800.000000	20.107590
5798.000000	20.146355
5796.000000	20.186638
5794.000000	20.227803
5792.000000	20.269689
5790.000000	20.311165
5788.000000	20.353689
5786.000000	20.396102
5784.000000	20.437520
5782.000000	20.478398
5780.000000	20.518753
5778.000000	20.561094
5776.000000	20.603283
5774.000000	20.645777
5772.000000	20.687099
5770.000000	20.728179
5768.000000	20.770591
5766.000000	20.813026
5764.000000	20.854195
5762.000000	20.895943
5760.000000	20.938679
5758.000000	20.981454
5756.000000	21.022465
5754.000000	21.062843
5752.000000	21.103967
5750.000000	21.146383
5748.000000	21.187555
5746.000000	21.228913
5744.000000	21.268995
5742.000000	21.308366
5740.000000	21.348598
5738.000000	21.390031
5736.000000	21.431369
5734.000000	21.471950
5732.000000	21.512242
5730.000000	21.552393
5728.000000	21.590839
5726.000000	21.630670
5724.000000	21.672801
5722.000000	21.716842
5720.000000	21.759571
5718.000000	21.801288
5716.000000	21.844368
5714.000000	21.889668
5712.000000	21.933382
5710.000000	21.976223
5708.000000	22.018922
5706.000000	22.063923
5704.000000	22.108421
5702.000000	22.151384
5700.000000	22.194934
5698.000000	22.241109
5696.000000	22.287319
5694.000000	22.332374
5692.000000	22.376106
5690.000000	22.421676
5688.000000	22.468118
5686.000000	22.514644
5684.000000	22.559295
5682.000000	22.601903
5680.000000	22.645445
5678.000000	22.692145
5676.000000	22.739671
5674.000000	22.786895
5672.000000	22.833499
5670.000000	22.880126
5668.000000	22.924777
5666.000000	22.968738
5664.000000	23.013590
5662.000000	23.059092
5660.000000	23.103682
5658.000000	23.147135
5656.000000	23.190501
5654.000000	23.235299
5652.000000	23.281912
5650.000000	23.329650
5648.000000	23.374836
5646.000000	23.418064
5644.000000	23.461717
5642.000000	23.507241
5640.000000	23.553217
5638.000000	23.598599
5636.000000	23.644314
5634.000000	23.690459
5632.000000	23.737363
5630.000000	23.783401
5628.000000	23.828158
5626.000000	23.873153
5624.000000	23.918535
5622.000000	23.963880
5620.000000	24.007963
5618.000000	24.052300
5616.000000	24.098669
5614.000000	24.145958
5612.000000	24.192332
5610.000000	24.237496
5608.000000	24.282669
5606.000000	24.328945
5604.000000	24.374536
5602.000000	24.420191
5600.000000	24.465652
5598.000000	24.511831
5596.000000	24.557311
5594.000000	24.602963
5592.000000	24.649436
5590.000000	24.696496
5588.000000	24.743664
5586.000000	24.791297
5584.000000	24.838713
5582.000000	24.885572
5580.000000	24.931090
5578.000000	24.977003
5576.000000	25.024248
5574.000000	25.073490
5572.000000	25.123272
5570.000000	25.170738
5568.000000	25.217428
5566.000000	25.264698
5564.000000	25.312603
5562.000000	25.361124
5560.000000	25.409239
5558.000000	25.457335
5556.000000	25.505009
5554.000000	25.552362
5552.000000	25.599611
5550.000000	25.646220
5548.000000	25.691991
5546.000000	25.739468
5544.000000	25.787942
5542.000000	25.836473
5540.000000	25.883931
5538.000000	25.930635
5536.000000	25.977724
5534.000000	26.025159
5532.000000	26.072396
5530.000000	26.121066
5528.000000	26.169432
5526.000000	26.216383
5524.000000	26.262079
5522.000000	26.308586
5520.000000	26.355372
5518.000000	26.403517
5516.000000	26.451704
5514.000000	26.500605
5512.000000	26.546951
5510.000000	26.591941
5508.000000	26.638283
5506.000000	26.686648
5504.000000	26.735859
5502.000000	26.784749
5500.000000	26.832663
5498.000000	26.878245
5496.000000	26.920619
5494.000000	26.964608
5492.000000	27.011741
5490.000000	27.062776
5488.000000	27.116449
5486.000000	27.171862
5484.000000	27.224928
5482.000000	27.273385
5480.000000	27.316323
5478.000000	27.358038
5476.000000	27.403985
5474.000000	27.456901
5472.000000	27.510513
5470.000000	27.560285
5468.000000	27.608876
5466.000000	27.658307
5464.000000	27.705340
5462.000000	27.752176
5460.000000	27.802736
5458.000000	27.857199
5456.000000	27.911819
5454.000000	27.962529
5452.000000	28.006616
5450.000000	28.045544
5448.000000	28.085118
5446.000000	28.131213
5444.000000	28.180014
5442.000000	28.234232
5440.000000	28.288468
5438.000000	28.336053
5436.000000	28.380198
5434.000000	28.426978
5432.000000	28.475228
5430.000000	28.523546
5428.000000	28.577693
5426.000000	28.640037
5424.000000	28.699899
5422.000000	28.751602
5420.000000	28.798493
5418.000000	28.836662
5416.000000	28.868447
5414.000000	28.904181
5412.000000	28.951557
5410.000000	29.011695
5408.000000	29.074059
5406.000000	29.134780
5404.000000	29.189768
5402.000000	29.239895
5400.000000	29.284661
5398.000000	29.323212
5396.000000	29.362644
5394.000000	29.413218
5392.000000	29.472687
5390.000000	29.530403
5388.000000	29.578144
5386.000000	29.626879
5384.000000	29.681865
5382.000000	29.736598
5380.000000	29.779216
5378.000000	29.818173
5376.000000	29.866919
5374.000000	29.928309
5372.000000	29.991102
5370.000000	30.048080
5368.000000	30.099100
5366.000000	30.147258
5364.000000	30.195641
5362.000000	30.249120
5360.000000	30.302168
5358.000000	30.347561
5356.000000	30.384695
5354.000000	30.427663
5352.000000	30.479993
5350.000000	30.533152
5348.000000	30.574513
5346.000000	30.614555
5344.000000	30.664491
5342.000000	30.717459
5340.000000	30.766017
5338.000000	30.816310
5336.000000	30.876343
5334.000000	30.940297
5332.000000	30.995400
5330.000000	31.042481
5328.000000	31.090123
5326.000000	31.145653
5324.000000	31.205982
5322.000000	31.262110
5320.000000	31.311945
5318.000000	31.359763
5316.000000	31.408735
5314.000000	31.460896
5312.000000	31.510033
5310.000000	31.554108
5308.000000	31.600301
5306.000000	31.654588
5304.000000	31.712646
5302.000000	31.766637
5300.000000	31.817874
5298.000000	31.869546
5296.000000	31.921616
5294.000000	31.969774
5292.000000	32.014425
5290.000000	32.063736
5288.000000	32.118589
5286.000000	32.175077
5284.000000	32.228031
5282.000000	32.280789
5280.000000	32.335081
5278.000000	32.390447
5276.000000	32.445356
5274.000000	32.498376
5272.000000	32.546869
5270.000000	32.593065
5268.000000	32.634477
5266.000000	32.675133
5264.000000	32.722083
5262.000000	32.780571
5260.000000	32.842664
5258.000000	32.894839
5256.000000	32.942159
5254.000000	32.995289
5252.000000	33.047748
5250.000000	33.093018
5248.000000	33.136244
5246.000000	33.189597
5244.000000	33.251746
5242.000000	33.315875
5240.000000	33.376880
5238.000000	33.430657
5236.000000	33.478981
5234.000000	33.525584
5232.000000	33.576414
5230.000000	33.628075
5228.000000	33.673601
5226.000000	33.718383
5224.000000	33.772599
5222.000000	33.834839
5220.000000	33.892872
5218.000000	33.947160
5216.000000	34.002115
5214.000000	34.056614
5212.000000	34.102226
5210.000000	34.138851
5208.000000	34.176652
5206.000000	34.231029
5204.000000	34.298984
5202.000000	34.366271
5200.000000	34.421123
5198.000000	34.470571
5196.000000	34.523893
5194.000000	34.582877
5192.000000	34.639213
5190.000000	34.690881
5188.000000	34.740714
5186.000000	34.792999
5184.000000	34.847151
5182.000000	34.903428
5180.000000	34.960009
5178.000000	35.016429
5176.000000	35.071252
5174.000000	35.124644
5172.000000	35.177617
5170.000000	35.232608
5168.000000	35.288357
5166.000000	35.342940
5164.000000	35.395732
5162.000000	35.449551
5160.000000	35.504034
5158.000000	35.557891
5156.000000	35.612517
5154.000000	35.668747
5152.000000	35.724333
5150.000000	35.778887
5148.000000	35.833415
5146.000000	35.888070
5144.000000	35.942060
5142.000000	35.997270
5140.000000	36.052534
5138.000000	36.106542
5136.000000	36.159067
5134.000000	36.213031
5132.000000	36.267797
5130.000000	36.322715
5128.000000	36.376886
5126.000000	36.431922
5124.000000	36.486290
5122.000000	36.539326
5120.000000	36.591284
5118.000000	36.643922
5116.000000	36.697958
5114.000000	36.753762
5112.000000	36.809357
5110.000000	36.864165
5108.000000	36.918731
5106.000000	36.974404
5104.000000	37.030073
5102.000000	37.085730
5100.000000	37.140722
5098.000000	37.196001
5096.000000	37.252525
5094.000000	37.309785
5092.000000	37.365017
5090.000000	37.419991
5088.000000	37.475724
5086.000000	37.533464
5084.000000	37.591142
5082.000000	37.649061
5080.000000	37.704584
5078.000000	37.759845
5076.000000	37.816186
5074.000000	37.874432
5072.000000	37.930505
5070.000000	37.986152
5068.000000	38.042634
5066.000000	38.100519
5064.000000	38.158514
5062.000000	38.217146
5060.000000	38.273752
5058.000000	38.328253
5056.000000	38.383507
5054.000000	38.441588
5052.000000	38.499550
5050.000000	38.555123
5048.000000	38.609330
5046.000000	38.664421
5044.000000	38.720218
5042.000000	38.775303
5040.000000	38.829201
5038.000000	38.884560
5036.000000	38.941129
5034.000000	38.998040
5032.000000	39.054421
5030.000000	39.110736
5028.000000	39.166562
5026.000000	39.222277
5024.000000	39.278826
5022.000000	39.337050
5020.000000	39.394120
5018.000000	39.450711
5016.000000	39.505955
5014.000000	39.561560
5012.000000	39.616865
5010.000000	39.674335
5008.000000	39.732948
5006.000000	39.791023
5004.000000	39.846958
5002.000000	39.903245
5000.000000	39.960800
4998.000000	40.020066
4996.000000	40.078284
4994.000000	40.136338
4992.000000	40.194500
4990.000000	40.252911
4988.000000	40.310693
4986.000000	40.368777
4984.000000	40.427042
4982.000000	40.485471
4980.000000	40.544226
4978.000000	40.602683
4976.000000	40.660103
4974.000000	40.718205
4972.000000	40.776233
4970.000000	40.832818
4968.000000	40.889960
4966.000000	40.949428
4964.000000	41.006922
4962.000000	41.062934
4960.000000	41.118980
4958.000000	41.176798
4956.000000	41.235094
4954.000000	41.294566
4952.000000	41.351059
4950.000000	41.404838
4948.000000	41.460250
4946.000000	41.518971
4944.000000	41.578614
4942.000000	41.636986
4940.000000	41.693122
4938.000000	41.748181
4936.000000	41.803354
4934.000000	41.859833
4932.000000	41.916708
4930.000000	41.974582
4928.000000	42.031567
4926.000000	42.087955
4924.000000	42.143064
4922.000000	42.200244
4920.000000	42.258409
4918.000000	42.316472
4916.000000	42.372309
4914.000000	42.430455
4912.000000	42.490523
4910.000000	42.550361
4908.000000	42.608444
4906.000000	42.666131
4904.000000	42.724127
4902.000000	42.782646
4900.000000	42.841790
4898.000000	42.902259
4896.000000	42.962694
4894.000000	43.022710
4892.000000	43.081354
4890.000000	43.140836
4888.000000	43.198355
4886.000000	43.255087
4884.000000	43.312837
4882.000000	43.372811
4880.000000	43.430725
4878.000000	43.488173
4876.000000	43.546486
4874.000000	43.606130
4872.000000	43.665977
4870.000000	43.726878
4868.000000	43.786438
4866.000000	43.844432
4864.000000	43.901347
4862.000000	43.959941
4860.000000	44.018722
4858.000000	44.076796
4856.000000	44.134790
4854.000000	44.194684
4852.000000	44.253895
4850.000000	44.310740
4848.000000	44.366567
4846.000000	44.423855
4844.000000	44.480500
4842.000000	44.537477
4840.000000	44.595411
4838.000000	44.654109
4836.000000	44.711357
4834.000000	44.769829
4832.000000	44.828649
4830.000000	44.886349
4828.000000	44.943629
4826.000000	45.002040
4824.000000	45.059546
4822.000000	45.116045
4820.000000	45.173206
4818.000000	45.232566
4816.000000	45.292051
4814.000000	45.352651
4812.000000	45.413353
4810.000000	45.473500
4808.000000	45.531767
4806.000000	45.590869
4804.000000	45.651095
4802.000000	45.712535
4800.000000	45.773057
4798.000000	45.832450
4796.000000	45.891868
4794.000000	45.952996
4792.000000	46.013870
4790.000000	46.075056
4788.000000	46.135703
4786.000000	46.195848
4784.000000	46.255252
4782.000000	46.315926
4780.000000	46.375393
4778.000000	46.433267
4776.000000	46.490932
4774.000000	46.550286
4772.000000	46.610552
4770.000000	46.671791
4768.000000	46.732845
4766.000000	46.793060
4764.000000	46.851534
4762.000000	46.910516
4760.000000	46.970389
4758.000000	47.029938
4756.000000	47.087244
4754.000000	47.144295
4752.000000	47.201407
4750.000000	47.259431
4748.000000	47.317680
4746.000000	47.377284
4744.000000	47.436258
4742.000000	47.495254
4740.000000	47.552848
4738.000000	47.610106
4736.000000	47.668075
4734.000000	47.728716
4732.000000	47.788168
4730.000000	47.847037
4728.000000	47.905832
4726.000000	47.964237
4724.000000	48.022352
4722.000000	48.082813
4720.000000	48.144317
4718.000000	48.206527
4716.000000	48.269169
4714.000000	48.330850
4712.000000	48.391795
4710.000000	48.453048
4708.000000	48.513908
4706.000000	48.575103
4704.000000	48.638115
4702.000000	48.703197
4700.000000	48.766632
4698.000000	48.827739
4696.000000	48.888711
4694.000000	48.951589
4692.000000	49.012763
4690.000000	49.072586
4688.000000	49.133077
4686.000000	49.196230
4684.000000	49.259353
4682.000000	49.320986
4680.000000	49.381030
4678.000000	49.442287
4676.000000	49.503945
4674.000000	49.565770
4672.000000	49.627722
4670.000000	49.691621
4668.000000	49.754339
4666.000000	49.814568
4664.000000	49.872249
4662.000000	49.931169
4660.000000	49.991822
4658.000000	50.054167
4656.000000	50.115168
4654.000000	50.175779
4652.000000	50.236762
4650.000000	50.298871
4648.000000	50.361398
4646.000000	50.424589
4644.000000	50.485625
4642.000000	50.545608
4640.000000	50.606133
4638.000000	50.667120
4636.000000	50.726409
4634.000000	50.786711
4632.000000	50.847402
4630.000000	50.908314
4628.000000	50.970429
4626.000000	51.033603
4624.000000	51.094962
4622.000000	51.157638
4620.000000	51.221385
4618.000000	51.283646
4616.000000	51.344406
4614.000000	51.407499
4612.000000	51.472278
4610.000000	51.536668
4608.000000	51.600148
4606.000000	51.665449
4604.000000	51.732200
4602.000000	51.797559
4600.000000	51.860867
4598.000000	51.925138
4596.000000	51.990654
4594.000000	52.056426
4592.000000	52.121763
4590.000000	52.186995
4588.000000	52.249758
4586.000000	52.312484
4584.000000	52.375901
4582.000000	52.440978
4580.000000	52.505824
4578.000000	52.571062
4576.000000	52.635371
4574.000000	52.699594
4572.000000	52.762418
4570.000000	52.825740
4568.000000	52.889785
4566.000000	52.952373
4564.000000	53.013121
4562.000000	53.077315
4560.000000	53.143637
4558.000000	53.207668
4556.000000	53.267406
4554.000000	53.327269
4552.000000	53.389915
4550.000000	53.455871
4548.000000	53.519614
4546.000000	53.581417
4544.000000	53.644125
4542.000000	53.708317
4540.000000	53.770243
4538.000000	53.831598
4536.000000	53.893609
4534.000000	53.955982
4532.000000	54.018798
4530.000000	54.084031
4528.000000	54.149350
4526.000000	54.213958
4524.000000	54.276733
4522.000000	54.339926
4520.000000	54.404857
4518.000000	54.469744
4516.000000	54.532865
4514.000000	54.597714
4512.000000	54.663300
4510.000000	54.728828
4508.000000	54.794278
4506.000000	54.859587
4504.000000	54.924488
4502.000000	54.990290
4500.000000	55.056062
4498.000000	55.122364
4496.000000	55.188043
4494.000000	55.253139
4492.000000	55.317293
4490.000000	55.381749
4488.000000	55.447190
4486.000000	55.512710
4484.000000	55.576532
4482.000000	55.642033
4480.000000	55.708496
4478.000000	55.773586
4476.000000	55.836615
4474.000000	55.899972
4472.000000	55.963226
4470.000000	56.026413
4468.000000	56.088547
4466.000000	56.150739
4464.000000	56.213084
4462.000000	56.276801
4460.000000	56.340861
4458.000000	56.403156
4456.000000	56.462901
4454.000000	56.524373
4452.000000	56.587806
4450.000000	56.650358
4448.000000	56.711328
4446.000000	56.773653
4444.000000	56.837220
4442.000000	56.902296
4440.000000	56.966473
4438.000000	57.027787
4436.000000	57.087572
4434.000000	57.150837
4432.000000	57.215840
4430.000000	57.280382
4428.000000	57.344313
4426.000000	57.408386
4424.000000	57.470687
4422.000000	57.533476
4420.000000	57.597623
4418.000000	57.662291
4416.000000	57.725643
4414.000000	57.789425
4412.000000	57.854678
4410.000000	57.920680
4408.000000	57.984417
4406.000000	58.048083
4404.000000	58.113105
4402.000000	58.178152
4400.000000	58.241253
4398.000000	58.304950
4396.000000	58.368449
4394.000000	58.431707
4392.000000	58.495485
4390.000000	58.560921
4388.000000	58.624139
4386.000000	58.684368
4384.000000	58.742625
4382.000000	58.802882
4380.000000	58.865270
4378.000000	58.928316
4376.000000	58.990063
4374.000000	59.051109
4372.000000	59.111041
4370.000000	59.170791
4368.000000	59.230093
4366.000000	59.289488
4364.000000	59.349383
4362.000000	59.411049
4360.000000	59.473092
4358.000000	59.535303
4356.000000	59.598166
4354.000000	59.661668
4352.000000	59.723269
4350.000000	59.785189
4348.000000	59.849104
4346.000000	59.913358
4344.000000	59.974869
4342.000000	60.036481
4340.000000	60.101037
4338.000000	60.167657
4336.000000	60.232032
4334.000000	60.295430
4332.000000	60.359508
4330.000000	60.425307
4328.000000	60.491163
4326.000000	60.556878
4324.000000	60.621955
4322.000000	60.687340
4320.000000	60.753694
4318.000000	60.822632
4316.000000	60.891336
4314.000000	60.958894
4312.000000	61.024548
4310.000000	61.090307
4308.000000	61.157532
4306.000000	61.226246
4304.000000	61.292751
4302.000000	61.358276
4300.000000	61.424093
4298.000000	61.490158
4296.000000	61.554878
4294.000000	61.619499
4292.000000	61.683711
4290.000000	61.748375
4288.000000	61.811959
4286.000000	61.875244
4284.000000	61.937595
4282.000000	61.998548
4280.000000	62.058267
4278.000000	62.118284
4276.000000	62.176178
4274.000000	62.233598
4272.000000	62.292702
4270.000000	62.353040
4268.000000	62.413272
4266.000000	62.475088
4264.000000	62.536239
4262.000000	62.597269
4260.000000	62.660602
4258.000000	62.725569
4256.000000	62.788930
4254.000000	62.852104
4252.000000	62.914535
4250.000000	62.976582
4248.000000	63.040175
4246.000000	63.105662
4244.000000	63.170383
4242.000000	63.235954
4240.000000	63.302531
4238.000000	63.368027
4236.000000	63.431206
4234.000000	63.494146
4232.000000	63.557946
4230.000000	63.623423
4228.000000	63.687221
4226.000000	63.749894
4224.000000	63.814595
4222.000000	63.881488
4220.000000	63.947269
4218.000000	64.011416
4216.000000	64.074782
4214.000000	64.139988
4212.000000	64.204864
4210.000000	64.269409
4208.000000	64.334525
4206.000000	64.401187
4204.000000	64.469709
4202.000000	64.538941
4200.000000	64.606698
4198.000000	64.675464
4196.000000	64.744889
4194.000000	64.814411
4192.000000	64.882524
4190.000000	64.950243
4188.000000	65.019256
4186.000000	65.088040
4184.000000	65.153623
4182.000000	65.219996
4180.000000	65.286835
4178.000000	65.350972
4176.000000	65.414221
4174.000000	65.479814
4172.000000	65.545444
4170.000000	65.611028
4168.000000	65.676035
4166.000000	65.740359
4164.000000	65.803615
4162.000000	65.868285
4160.000000	65.933384
4158.000000	65.997110
4156.000000	66.060678
4154.000000	66.125656
4152.000000	66.190240
4150.000000	66.256108
4148.000000	66.322979
4146.000000	66.389586
4144.000000	66.452824
4142.000000	66.515362
4140.000000	66.580732
4138.000000	66.647742
4136.000000	66.713446
4134.000000	66.779752
4132.000000	66.846176
4130.000000	66.912834
4128.000000	66.978872
4126.000000	67.045743
4124.000000	67.113397
4122.000000	67.180542
4120.000000	67.245066
4118.000000	67.309484
4116.000000	67.374758
4114.000000	67.440241
4112.000000	67.505033
4110.000000	67.571123
4108.000000	67.636258
4106.000000	67.700393
4104.000000	67.766742
4102.000000	67.835000
4100.000000	67.898629
4098.000000	67.959455
4096.000000	68.022194
4094.000000	68.087958
4092.000000	68.153895
4090.000000	68.220366
4088.000000	68.288807
4086.000000	68.360359
4084.000000	68.431065
4082.000000	68.499573
4080.000000	68.565671
4078.000000	68.632628
4076.000000	68.700151
4074.000000	68.766260
4072.000000	68.832073
4070.000000	68.899185
4068.000000	68.964739
4066.000000	69.028922
4064.000000	69.091182
4062.000000	69.154564
4060.000000	69.219769
4058.000000	69.287217
4056.000000	69.355340
4054.000000	69.420726
4052.000000	69.483972
4050.000000	69.548711
4048.000000	69.610973
4046.000000	69.671070
4044.000000	69.734990
4042.000000	69.804458
4040.000000	69.873509
4038.000000	69.941002
4036.000000	70.009007
4034.000000	70.077416
4032.000000	70.144204
4030.000000	70.211095
4028.000000	70.276994
4026.000000	70.343393
4024.000000	70.411843
4022.000000	70.480325
4020.000000	70.548232
4018.000000	70.616640
4016.000000	70.682981
4014.000000	70.749923
4012.000000	70.818423
4010.000000	70.887806
4008.000000	70.958903
4006.000000	71.030250
4004.000000	71.099576
4002.000000	71.168327
4000.000000	71.234933
3998.000000	71.300157
3996.000000	71.364234
3994.000000	71.426825
3992.000000	71.489333
3990.000000	71.555249
3988.000000	71.622157
3986.000000	71.686359
3984.000000	71.748533
3982.000000	71.812548
3980.000000	71.877295
3978.000000	71.938264
3976.000000	71.995256
3974.000000	72.054776
3972.000000	72.118248
3970.000000	72.184259
3968.000000	72.250934
3966.000000	72.313602
3964.000000	72.367328
3962.000000	72.422805
3960.000000	72.486687
3958.000000	72.551580
3956.000000	72.613408
3954.000000	72.668870
3952.000000	72.708625
3950.000000	72.745063
3948.000000	72.804470
3946.000000	72.871111
3944.000000	72.922774
3942.000000	72.995272
3940.000000	73.093047
3938.000000	73.175147
3936.000000	73.216625
3934.000000	73.227042
3932.000000	73.266356
3930.000000	73.362079
3928.000000	73.449366
3926.000000	73.500162
3924.000000	73.557428
3922.000000	73.613515
3920.000000	73.633103
3918.000000	73.670811
3916.000000	73.791851
3914.000000	73.945575
3912.000000	74.052878
3910.000000	74.104926
3908.000000	74.068462
3906.000000	73.923609
3904.000000	73.802603
3902.000000	73.830182
3900.000000	74.001104
3898.000000	74.258471
3896.000000	74.450661
3894.000000	74.446781
3892.000000	74.398045
3890.000000	74.466182
3888.000000	74.477639
3886.000000	74.448105
3884.000000	74.566056
3882.000000	74.697056
3880.000000	74.809624
3878.000000	74.952428
3876.000000	74.996744
3874.000000	74.923350
3872.000000	74.766680
3870.000000	74.722939
3868.000000	74.894177
3866.000000	75.033952
3864.000000	75.135019
3862.000000	75.322133
3860.000000	75.481405
3858.000000	75.307013
3856.000000	74.636987
3854.000000	74.174846
3852.000000	74.619211
3850.000000	75.441367
3848.000000	75.901313
3846.000000	75.978053
3844.000000	75.919808
3842.000000	75.790206
3840.000000	75.526764
3838.000000	75.406417
3836.000000	75.671204
3834.000000	76.019042
3832.000000	76.236925
3830.000000	76.402154
3828.000000	76.512096
3826.000000	76.542756
3824.000000	76.407336
3822.000000	76.230808
3820.000000	76.251227
3818.000000	76.253417
3816.000000	76.316261
3814.000000	76.712465
3812.000000	77.064244
3810.000000	77.030922
3808.000000	76.841061
3806.000000	76.834821
3804.000000	76.788961
3802.000000	76.670543
3800.000000	76.891614
3798.000000	77.248841
3796.000000	77.469463
3794.000000	77.650106
3792.000000	77.782772
3790.000000	77.849872
3788.000000	77.883430
3786.000000	77.910607
3784.000000	77.949923
3782.000000	77.959488
3780.000000	77.964770
3778.000000	78.068505
3776.000000	78.211696
3774.000000	78.258608
3772.000000	78.179739
3770.000000	78.128744
3768.000000	78.206003
3766.000000	78.332019
3764.000000	78.446787
3762.000000	78.471156
3760.000000	78.441161
3758.000000	78.488072
3756.000000	78.439654
3754.000000	78.048006
3752.000000	77.617800
3750.000000	77.644294
3748.000000	77.838463
3746.000000	77.705199
3744.000000	77.835694
3742.000000	78.494780
3740.000000	78.853521
3738.000000	78.698786
3736.000000	78.545625
3734.000000	78.637616
3732.000000	78.910749
3730.000000	79.232651
3728.000000	79.388833
3726.000000	79.427196
3724.000000	79.495537
3722.000000	79.597599
3720.000000	79.725497
3718.000000	79.839591
3716.000000	79.812276
3714.000000	79.571623
3712.000000	79.415297
3710.000000	79.607491
3708.000000	79.948818
3706.000000	80.159302
3704.000000	80.175923
3702.000000	80.171473
3700.000000	80.291811
3698.000000	80.429453
3696.000000	80.479551
3694.000000	80.401439
3692.000000	80.126611
3690.000000	79.810033
3688.000000	79.905444
3686.000000	80.385991
3684.000000	80.719961
3682.000000	80.768409
3680.000000	80.613611
3678.000000	80.216479
3676.000000	79.929789
3674.000000	80.057225
3672.000000	80.158392
3670.000000	80.260172
3668.000000	80.660749
3666.000000	81.037943
3664.000000	81.187175
3662.000000	81.221619
3660.000000	81.161968
3658.000000	80.991026
3656.000000	80.931076
3654.000000	80.954538
3652.000000	80.696743
3650.000000	80.389827
3648.000000	80.537660
3646.000000	80.989648
3644.000000	81.313145
3642.000000	81.427254
3640.000000	81.460725
3638.000000	81.470258
3636.000000	81.446335
3634.000000	81.365945
3632.000000	81.087651
3630.000000	80.727216
3628.000000	80.819393
3626.000000	81.259990
3624.000000	81.478524
3622.000000	81.363710
3620.000000	81.192520
3618.000000	81.225068
3616.000000	81.330619
3614.000000	81.321605
3612.000000	81.255697
3610.000000	81.210196
3608.000000	81.289368
3606.000000	81.471864
3604.000000	81.574862
3602.000000	81.569164
3600.000000	81.547404
3598.000000	81.526898
3596.000000	81.497093
3594.000000	81.503346
3592.000000	81.491776
3590.000000	81.356493
3588.000000	81.245587
3586.000000	81.339412
3584.000000	81.502598
3582.000000	81.574649
3580.000000	81.580406
3578.000000	81.575263
3576.000000	81.572706
3574.000000	81.572278
3572.000000	81.531070
3570.000000	81.385138
3568.000000	81.238609
3566.000000	81.269839
3564.000000	81.401864
3562.000000	81.477338
3560.000000	81.499993
3558.000000	81.512780
3556.000000	81.502555
3554.000000	81.465122
3552.000000	81.442249
3550.000000	81.429304
3548.000000	81.380642
3546.000000	81.342492
3544.000000	81.365969
3542.000000	81.407676
3540.000000	81.415093
3538.000000	81.389173
3536.000000	81.366107
3534.000000	81.355173
3532.000000	81.323196
3530.000000	81.267060
3528.000000	81.213989
3526.000000	81.171160
3524.000000	81.134355
3522.000000	81.115188
3520.000000	81.101849
3518.000000	81.077806
3516.000000	81.045816
3514.000000	81.002601
3512.000000	80.946954
3510.000000	80.892992
3508.000000	80.851169
3506.000000	80.793667
3504.000000	80.716466
3502.000000	80.666393
3500.000000	80.638235
3498.000000	80.593643
3496.000000	80.539494
3494.000000	80.489926
3492.000000	80.436582
3490.000000	80.374908
3488.000000	80.320430
3486.000000	80.280516
3484.000000	80.238000
3482.000000	80.198223
3480.000000	80.182390
3478.000000	80.181463
3476.000000	80.179451
3474.000000	80.182060
3472.000000	80.190765
3470.000000	80.199014
3468.000000	80.212504
3466.000000	80.241997
3464.000000	80.278065
3462.000000	80.313134
3460.000000	80.351751
3458.000000	80.390350
3456.000000	80.424057
3454.000000	80.453033
3452.000000	80.474578
3450.000000	80.480344
3448.000000	80.480835
3446.000000	80.506311
3444.000000	80.554082
3442.000000	80.612850
3440.000000	80.686787
3438.000000	80.773286
3436.000000	80.874164
3434.000000	80.995544
3432.000000	81.134427
3430.000000	81.278305
3428.000000	81.420420
3426.000000	81.556205
3424.000000	81.676963
3422.000000	81.783800
3420.000000	81.892996
3418.000000	82.004793
3416.000000	82.102515
3414.000000	82.184365
3412.000000	82.257544
3410.000000	82.323361
3408.000000	82.383583
3406.000000	82.440433
3404.000000	82.491852
3402.000000	82.540362
3400.000000	82.598243
3398.000000	82.672604
3396.000000	82.751429
3394.000000	82.819701
3392.000000	82.887576
3390.000000	82.966093
3388.000000	83.040514
3386.000000	83.101567
3384.000000	83.159771
3382.000000	83.218758
3380.000000	83.272400
3378.000000	83.323214
3376.000000	83.375316
3374.000000	83.423952
3372.000000	83.463297
3370.000000	83.495261
3368.000000	83.534012
3366.000000	83.583395
3364.000000	83.632950
3362.000000	83.678869
3360.000000	83.724728
3358.000000	83.768321
3356.000000	83.809147
3354.000000	83.849722
3352.000000	83.888104
3350.000000	83.928605
3348.000000	83.974622
3346.000000	84.020175
3344.000000	84.060561
3342.000000	84.098518
3340.000000	84.134510
3338.000000	84.168409
3336.000000	84.209723
3334.000000	84.257020
3332.000000	84.299589
3330.000000	84.335167
3328.000000	84.366750
3326.000000	84.400513
3324.000000	84.439734
3322.000000	84.479307
3320.000000	84.517328
3318.000000	84.553913
3316.000000	84.587848
3314.000000	84.620725
3312.000000	84.651310
3310.000000	84.676733
3308.000000	84.702178
3306.000000	84.734145
3304.000000	84.775768
3302.000000	84.821577
3300.000000	84.862539
3298.000000	84.897956
3296.000000	84.930888
3294.000000	84.961640
3292.000000	84.995149
3290.000000	85.037358
3288.000000	85.079672
3286.000000	85.117789
3284.000000	85.155197
3282.000000	85.193401
3280.000000	85.229665
3278.000000	85.262896
3276.000000	85.297790
3274.000000	85.334962
3272.000000	85.373813
3270.000000	85.417185
3268.000000	85.465379
3266.000000	85.510618
3264.000000	85.553158
3262.000000	85.597678
3260.000000	85.642172
3258.000000	85.683707
3256.000000	85.724557
3254.000000	85.771806
3252.000000	85.823451
3250.000000	85.870701
3248.000000	85.912373
3246.000000	85.956220
3244.000000	86.009407
3242.000000	86.063397
3240.000000	86.113167
3238.000000	86.161768
3236.000000	86.208860
3234.000000	86.252095
3232.000000	86.301053
3230.000000	86.356605
3228.000000	86.409353
3226.000000	86.461388
3224.000000	86.513082
3222.000000	86.560238
3220.000000	86.604709
3218.000000	86.650931
3216.000000	86.697297
3214.000000	86.745593
3212.000000	86.798413
3210.000000	86.853121
3208.000000	86.911077
3206.000000	86.972732
3204.000000	87.039737
3202.000000	87.109236
3200.000000	87.178253
3198.000000	87.248841
3196.000000	87.323700
3194.000000	87.399702
3192.000000	87.474325
3190.000000	87.546717
3188.000000	87.615993
3186.000000	87.682818
3184.000000	87.753606
3182.000000	87.827277
3180.000000	87.897111
3178.000000	87.965666
3176.000000	88.038816
3174.000000	88.114370
3172.000000	88.189921
3170.000000	88.262721
3168.000000	88.334107
3166.000000	88.409311
3164.000000	88.487025
3162.000000	88.564653
3160.000000	88.642892
3158.000000	88.721841
3156.000000	88.798087
3154.000000	88.869531
3152.000000	88.943074
3150.000000	89.024566
3148.000000	89.109503
3146.000000	89.188743
3144.000000	89.262934
3142.000000	89.333961
3140.000000	89.402480
3138.000000	89.473616
3136.000000	89.546307
3134.000000	89.614410
3132.000000	89.681754
3130.000000	89.749209
3128.000000	89.812346
3126.000000	89.873924
3124.000000	89.932856
3122.000000	89.985655
3120.000000	90.037298
3118.000000	90.089153
3116.000000	90.144027
3114.000000	90.204821
3112.000000	90.262789
3110.000000	90.314830
3108.000000	90.368699
3106.000000	90.427138
3104.000000	90.484750
3102.000000	90.542039
3100.000000	90.606480
3098.000000	90.672226
3096.000000	90.736924
3094.000000	90.803075
3092.000000	90.866753
3090.000000	90.926449
3088.000000	90.984367
3086.000000	91.037832
3084.000000	91.087846
3082.000000	91.133743
3080.000000	91.171022
3078.000000	91.207179
3076.000000	91.246933
3074.000000	91.278996
3072.000000	91.298928
3070.000000	91.308044
3068.000000	91.312912
3066.000000	91.327156
3064.000000	91.361962
3062.000000	91.412882
3060.000000	91.468434
3058.000000	91.523276
3056.000000	91.584465
3054.000000	91.648741
3052.000000	91.706082
3050.000000	91.756538
3048.000000	91.806765
3046.000000	91.850508
3044.000000	91.880137
3042.000000	91.904254
3040.000000	91.930214
3038.000000	91.950560
3036.000000	91.960092
3034.000000	91.959504
3032.000000	91.948739
3030.000000	91.917174
3028.000000	91.850082
3026.000000	91.742824
3024.000000	91.613294
3022.000000	91.495565
3020.000000	91.429704
3018.000000	91.456007
3016.000000	91.598680
3014.000000	91.837820
3012.000000	92.123547
3010.000000	92.400683
3008.000000	92.627794
3006.000000	92.790662
3004.000000	92.905336
3002.000000	92.985555
3000.000000	93.041417
2998.000000	93.081896
2996.000000	93.112741
2994.000000	93.134435
2992.000000	93.146867
2990.000000	93.147100
2988.000000	93.131015
2986.000000	93.094988
2984.000000	93.035664
2982.000000	92.949818
2980.000000	92.830366
2978.000000	92.664383
2976.000000	92.437137
2974.000000	92.132596
2972.000000	91.739805
2970.000000	91.260209
2968.000000	90.736009
2966.000000	90.251541
2964.000000	89.896039
2962.000000	89.724098
2960.000000	89.736208
2958.000000	89.876891
2956.000000	90.069803
2954.000000	90.252064
2952.000000	90.393786
2950.000000	90.466146
2948.000000	90.432493
2946.000000	90.269274
2944.000000	89.973633
2942.000000	89.558449
2940.000000	89.063225
2938.000000	88.550453
2936.000000	88.078616
2934.000000	87.656611
2932.000000	87.255932
2930.000000	86.865029
2928.000000	86.535367
2926.000000	86.370504
2924.000000	86.477684
2922.000000	86.899840
2920.000000	87.579967
2918.000000	88.401307
2916.000000	89.256154
2914.000000	90.061813
2912.000000	90.756092
2910.000000	91.309978
2908.000000	91.741449
2906.000000	92.091241
2904.000000	92.395791
2902.000000	92.671826
2900.000000	92.926960
2898.000000	93.166068
2896.000000	93.392081
2894.000000	93.606750
2892.000000	93.811622
2890.000000	93.998950
2888.000000	94.161930
2886.000000	94.293157
2884.000000	94.382950
2882.000000	94.425813
2880.000000	94.421849
2878.000000	94.367130
2876.000000	94.254926
2874.000000	94.075816
2872.000000	93.821622
2870.000000	93.463988
2868.000000	92.977587
2866.000000	92.401254
2864.000000	91.857947
2862.000000	91.502156
2860.000000	91.426962
2858.000000	91.594349
2856.000000	91.896044
2854.000000	92.255806
2852.000000	92.672311
2850.000000	93.182361
2848.000000	93.789397
2846.000000	94.410283
2844.000000	94.952954
2842.000000	95.387734
2840.000000	95.728734
2838.000000	96.000384
2836.000000	96.223833
2834.000000	96.406852
2832.000000	96.561111
2830.000000	96.695977
2828.000000	96.818226
2826.000000	96.929037
2824.000000	97.030581
2822.000000	97.123052
2820.000000	97.208670
2818.000000	97.287375
2816.000000	97.359780
2814.000000	97.424463
2812.000000	97.481300
2810.000000	97.533395
2808.000000	97.584199
2806.000000	97.633179
2804.000000	97.681596
2802.000000	97.728340
2800.000000	97.771720
2798.000000	97.811414
2796.000000	97.851578
2794.000000	97.893994
2792.000000	97.942639
2790.000000	97.998251
2788.000000	98.066659
2786.000000	98.148283
2784.000000	98.234857
2782.000000	98.315620
2780.000000	98.390434
2778.000000	98.458913
2776.000000	98.521054
2774.000000	98.577432
2772.000000	98.632682
2770.000000	98.686816
2768.000000	98.737946
2766.000000	98.786559
2764.000000	98.835272
2762.000000	98.881289
2760.000000	98.926698
2758.000000	98.970543
2756.000000	99.013817
2754.000000	99.055456
2752.000000	99.095092
2750.000000	99.132794
2748.000000	99.170843
2746.000000	99.206855
2744.000000	99.242165
2742.000000	99.276287
2740.000000	99.310852
2738.000000	99.344804
2736.000000	99.380378
2734.000000	99.415135
2732.000000	99.449472
2730.000000	99.481655
2728.000000	99.514171
2726.000000	99.547437
2724.000000	99.580224
2722.000000	99.611771
2720.000000	99.644016
2718.000000	99.675539
2716.000000	99.705902
2714.000000	99.734230
2712.000000	99.761039
2710.000000	99.783548
2708.000000	99.805554
2706.000000	99.831698
2704.000000	99.862861
2702.000000	99.898789
2700.000000	99.941722
2698.000000	99.989734
2696.000000	100.038391
2694.000000	100.083558
2692.000000	100.127534
2690.000000	100.169768
2688.000000	100.212169
2686.000000	100.250322
2684.000000	100.286902
2682.000000	100.323982
2680.000000	100.361869
2678.000000	100.396623
2676.000000	100.428326
2674.000000	100.459829
2672.000000	100.490445
2670.000000	100.519462
2668.000000	100.549735
2666.000000	100.577736
2664.000000	100.606672
2662.000000	100.636200
2660.000000	100.665695
2658.000000	100.696156
2656.000000	100.730507
2654.000000	100.766555
2652.000000	100.805286
2650.000000	100.847015
2648.000000	100.890373
2646.000000	100.929006
2644.000000	100.964745
2642.000000	100.999357
2640.000000	101.035435
2638.000000	101.069883
2636.000000	101.103561
2634.000000	101.137346
2632.000000	101.170063
2630.000000	101.198404
2628.000000	101.226320
2626.000000	101.254225
2624.000000	101.283189
2622.000000	101.311125
2620.000000	101.338675
2618.000000	101.364280
2616.000000	101.391207
2614.000000	101.416714
2612.000000	101.439745
2610.000000	101.460480
2608.000000	101.481428
2606.000000	101.498568
2604.000000	101.514323
2602.000000	101.528836
2600.000000	101.539790
2598.000000	101.546974
2596.000000	101.557330
2594.000000	101.572354
2592.000000	101.596109
2590.000000	101.629118
2588.000000	101.670729
2586.000000	101.720205
2584.000000	101.779742
2582.000000	101.842914
2580.000000	101.904253
2578.000000	101.962762
2576.000000	102.016460
2574.000000	102.064023
2572.000000	102.107450
2570.000000	102.145716
2568.000000	102.182617
2566.000000	102.218278
2564.000000	102.253449
2562.000000	102.282872
2560.000000	102.310279
2558.000000	102.337518
2556.000000	102.365624
2554.000000	102.392063
2552.000000	102.419299
2550.000000	102.445734
2548.000000	102.472493
2546.000000	102.496813
2544.000000	102.521998
2542.000000	102.547962
2540.000000	102.574771
2538.000000	102.602616
2536.000000	102.630094
2534.000000	102.654986
2532.000000	102.682126
2530.000000	102.708227
2528.000000	102.732246
2526.000000	102.755422
2524.000000	102.781113
2522.000000	102.805071
2520.000000	102.828482
2518.000000	102.851043
2516.000000	102.875323
2514.000000	102.899532
2512.000000	102.923231
2510.000000	102.944943
2508.000000	102.966830
2506.000000	102.987892
2504.000000	103.009544
2502.000000	103.030366
2500.000000	103.053683
2498.000000	103.077054
2496.000000	103.102280
2494.000000	103.128554
2492.000000	103.155527
2490.000000	103.179779
2488.000000	103.205071
2486.000000	103.231579
2484.000000	103.258694
2482.000000	103.284371
2480.000000	103.309808
2478.000000	103.332265
2476.000000	103.354121
2474.000000	103.375248
2472.000000	103.396442
2470.000000	103.414844
2468.000000	103.432459
2466.000000	103.448306
2464.000000	103.465721
2462.000000	103.480759
2460.000000	103.496575
2458.000000	103.513630
2456.000000	103.531004
2454.000000	103.547889
2452.000000	103.565898
2450.000000	103.581987
2448.000000	103.597725
2446.000000	103.613555
2444.000000	103.631072
2442.000000	103.645419
2440.000000	103.659066
2438.000000	103.674000
2436.000000	103.689925
2434.000000	103.703561
2432.000000	103.716315
2430.000000	103.726162
2428.000000	103.737512
2426.000000	103.750715
2424.000000	103.767033
2422.000000	103.782065
2420.000000	103.796628
2418.000000	103.808079
2416.000000	103.819340
2414.000000	103.831714
2412.000000	103.846365
2410.000000	103.858872
2408.000000	103.870739
2406.000000	103.883292
2404.000000	103.897710
2402.000000	103.910954
2400.000000	103.924943
2398.000000	103.939808
2396.000000	103.957295
2394.000000	103.973271
2392.000000	103.991582
2390.000000	104.009041
2388.000000	104.023543
2386.000000	104.028904
2384.000000	104.021994
2382.000000	103.993592
2380.000000	103.933385
2378.000000	103.830852
2376.000000	103.686893
2374.000000	103.501460
2372.000000	103.284470
2370.000000	103.052616
2368.000000	102.833349
2366.000000	102.651546
2364.000000	102.532798
2362.000000	102.490892
2360.000000	102.540911
2358.000000	102.682983
2356.000000	102.911267
2354.000000	103.206188
2352.000000	103.537022
2350.000000	103.780069
2348.000000	103.769608
2346.000000	103.554655
2344.000000	103.325947
2342.000000	103.161171
2340.000000	103.066586
2338.000000	103.023964
2336.000000	103.022526
2334.000000	103.053372
2332.000000	103.111435
2330.000000	103.190536
2328.000000	103.292173
2326.000000	103.404525
2324.000000	103.519526
2322.000000	103.632272
2320.000000	103.740868
2318.000000	103.837876
2316.000000	103.926604
2314.000000	104.005271
2312.000000	104.073878
2310.000000	104.129334
2308.000000	104.175614
2306.000000	104.214945
2304.000000	104.249582
2302.000000	104.275561
2300.000000	104.298523
2298.000000	104.318780
2296.000000	104.337322
2294.000000	104.350876
2292.000000	104.364864
2290.000000	104.375789
2288.000000	104.385722
2286.000000	104.393380
2284.000000	104.400290
2282.000000	104.400079
2280.000000	104.398494
2278.000000	104.396237
2276.000000	104.391866
2274.000000	104.383228
2272.000000	104.376867
2270.000000	104.371099
2268.000000	104.367834
2266.000000	104.362574
2264.000000	104.357918
2262.000000	104.352999
2260.000000	104.350833
2258.000000	104.347105
2256.000000	104.348039
2254.000000	104.348719
2252.000000	104.351914
2250.000000	104.359727
2248.000000	104.369283
2246.000000	104.377140
2244.000000	104.388062
2242.000000	104.397980
2240.000000	104.410662
2238.000000	104.423647
2236.000000	104.438842
2234.000000	104.452636
2232.000000	104.466001
2230.000000	104.477004
2228.000000	104.489753
2226.000000	104.500209
2224.000000	104.511965
2222.000000	104.520211
2220.000000	104.528201
2218.000000	104.536340
2216.000000	104.543286
2214.000000	104.545489
2212.000000	104.550490
2210.000000	104.555056
2208.000000	104.559000
2206.000000	104.560999
2204.000000	104.566270
2202.000000	104.571458
2200.000000	104.577055
2198.000000	104.579491
2196.000000	104.582077
2194.000000	104.584132
2192.000000	104.585840
2190.000000	104.584125
2188.000000	104.584285
2186.000000	104.583472
2184.000000	104.583751
2182.000000	104.582880
2180.000000	104.584657
2178.000000	104.582618
2176.000000	104.577665
2174.000000	104.567009
2172.000000	104.545183
2170.000000	104.520568
2168.000000	104.531114
2166.000000	104.553772
2164.000000	104.561830
2162.000000	104.560264
2160.000000	104.560295
2158.000000	104.559762
2156.000000	104.560577
2154.000000	104.556365
2152.000000	104.554221
2150.000000	104.552656
2148.000000	104.552033
2146.000000	104.550057
2144.000000	104.550565
2142.000000	104.548133
2140.000000	104.545782
2138.000000	104.540833
2136.000000	104.539632
2134.000000	104.539962
2132.000000	104.540080
2130.000000	104.536394
2128.000000	104.533183
2126.000000	104.531703
2124.000000	104.533144
2122.000000	104.533587
2120.000000	104.535006
2118.000000	104.536001
2116.000000	104.538697
2114.000000	104.544672
2112.000000	104.556203
2110.000000	104.569144
2108.000000	104.582333
2106.000000	104.592332
2104.000000	104.603138
2102.000000	104.614008
2100.000000	104.626550
2098.000000	104.637693
2096.000000	104.652948
2094.000000	104.664467
2092.000000	104.675886
2090.000000	104.686213
2088.000000	104.702962
2086.000000	104.716814
2084.000000	104.734048
2082.000000	104.747822
2080.000000	104.766511
2078.000000	104.782905
2076.000000	104.799352
2074.000000	104.812034
2072.000000	104.829891
2070.000000	104.846848
2068.000000	104.862816
2066.000000	104.872712
2064.000000	104.894527
2062.000000	104.921452
2060.000000	104.945696
2058.000000	104.965686
2056.000000	104.985672
2054.000000	105.005073
2052.000000	105.027524
2050.000000	105.046642
2048.000000	105.066390
2046.000000	105.084374
2044.000000	105.101482
2042.000000	105.112479
2040.000000	105.132734
2038.000000	105.150931
2036.000000	105.164711
2034.000000	105.172092
2032.000000	105.171669
2030.000000	105.153064
2028.000000	105.161573
2026.000000	105.196471
2024.000000	105.220962
2022.000000	105.229994
2020.000000	105.228452
2018.000000	105.220873
2016.000000	105.243324
2014.000000	105.280594
2012.000000	105.304135
2010.000000	105.317967
2008.000000	105.334719
2006.000000	105.347387
2004.000000	105.357587
2002.000000	105.362707
2000.000000	105.366832
1998.000000	105.369167
1996.000000	105.368794
1994.000000	105.334853
1992.000000	105.303261
1990.000000	105.325908
1988.000000	105.353847
1986.000000	105.363602
1984.000000	105.361284
1982.000000	105.349435
1980.000000	105.338039
1978.000000	105.323143
1976.000000	105.309910
1974.000000	105.293510
1972.000000	105.273222
1970.000000	105.234049
1968.000000	105.182082
1966.000000	105.165559
1964.000000	105.167983
1962.000000	105.110711
1960.000000	104.986823
1958.000000	104.955028
1956.000000	105.036036
1954.000000	105.064876
1952.000000	105.045553
1950.000000	105.010806
1948.000000	104.986050
1946.000000	104.941729
1944.000000	104.857023
1942.000000	104.819487
1940.000000	104.874723
1938.000000	104.888997
1936.000000	104.868494
1934.000000	104.838041
1932.000000	104.812492
1930.000000	104.783061
1928.000000	104.754617
1926.000000	104.700539
1924.000000	104.613340
1922.000000	104.559348
1920.000000	104.469798
1918.000000	104.355524
1916.000000	104.426315
1914.000000	104.471507
1912.000000	104.412205
1910.000000	104.326816
1908.000000	104.285813
1906.000000	104.253759
1904.000000	104.210009
1902.000000	104.156051
1900.000000	104.111794
1898.000000	104.048241
1896.000000	103.981304
1894.000000	103.948001
1892.000000	103.897851
1890.000000	103.800920
1888.000000	103.830528
1886.000000	103.878332
1884.000000	103.872571
1882.000000	103.853865
1880.000000	103.835853
1878.000000	103.808343
1876.000000	103.788570
1874.000000	103.752023
1872.000000	103.625450
1870.000000	103.377713
1868.000000	103.344454
1866.000000	103.508088
1864.000000	103.588421
1862.000000	103.566571
1860.000000	103.532798
1858.000000	103.499457
1856.000000	103.474789
1854.000000	103.438358
1852.000000	103.402128
1850.000000	103.329989
1848.000000	103.194829
1846.000000	102.841763
1844.000000	102.621351
1842.000000	102.900269
1840.000000	103.086650
1838.000000	103.034522
1836.000000	102.981523
1834.000000	102.911362
1832.000000	102.687918
1830.000000	102.459837
1828.000000	102.488977
1826.000000	102.445800
1824.000000	102.440547
1822.000000	102.519164
1820.000000	102.492392
1818.000000	102.406821
1816.000000	102.341320
1814.000000	102.248075
1812.000000	102.093829
1810.000000	101.990159
1808.000000	101.967370
1806.000000	101.898647
1804.000000	101.736439
1802.000000	101.496087
1800.000000	101.364115
1798.000000	101.349094
1796.000000	101.221818
1794.000000	100.777647
1792.000000	100.521294
1790.000000	100.750287
1788.000000	100.861091
1786.000000	100.671899
1784.000000	100.536297
1782.000000	100.439398
1780.000000	100.333754
1778.000000	100.270600
1776.000000	100.022093
1774.000000	99.398710
1772.000000	99.078783
1770.000000	99.343736
1768.000000	99.487965
1766.000000	99.623933
1764.000000	99.481037
1762.000000	99.176910
1760.000000	99.176481
1758.000000	99.089061
1756.000000	98.955086
1754.000000	98.757918
1752.000000	98.198446
1750.000000	97.986773
1748.000000	98.104473
1746.000000	98.113921
1744.000000	97.965842
1742.000000	97.668967
1740.000000	97.381005
1738.000000	97.327462
1736.000000	96.649172
1734.000000	95.959115
1732.000000	96.577656
1730.000000	97.171486
1728.000000	97.305348
1726.000000	97.284268
1724.000000	97.192898
1722.000000	97.045494
1720.000000	96.397232
1718.000000	95.501135
1716.000000	95.650504
1714.000000	96.279524
1712.000000	96.575466
1710.000000	96.511177
1708.000000	96.238235
1706.000000	95.911890
1704.000000	95.728128
1702.000000	94.890804
1700.000000	94.262790
1698.000000	94.469821
1696.000000	94.391476
1694.000000	95.154524
1692.000000	95.825832
1690.000000	95.766793
1688.000000	95.405592
1686.000000	94.266534
1684.000000	93.829487
1682.000000	94.824388
1680.000000	95.385818
1678.000000	95.239156
1676.000000	94.741203
1674.000000	94.716959
1672.000000	94.738493
1670.000000	94.418148
1668.000000	94.573562
1666.000000	94.815250
1664.000000	94.549457
1662.000000	94.402519
1660.000000	94.560321
1658.000000	94.462236
1656.000000	93.503762
1654.000000	91.735190
1652.000000	91.831224
1650.000000	93.180202
1648.000000	93.066797
1646.000000	92.783826
1644.000000	93.268484
1642.000000	93.537097
1640.000000	93.325444
1638.000000	92.647016
1636.000000	91.857225
1634.000000	92.143181
1632.000000	92.638926
1630.000000	92.462958
1628.000000	92.091237
1626.000000	91.701822
1624.000000	91.136234
1622.000000	90.777183
1620.000000	90.381424
1618.000000	89.396961
1616.000000	88.908374
1614.000000	89.058202
1612.000000	88.644495
1610.000000	88.017040
1608.000000	87.696219
1606.000000	87.731627
1604.000000	87.927933
1602.000000	88.174289
1600.000000	88.414730
1598.000000	88.620153
1596.000000	88.767127
1594.000000	88.881700
1592.000000	88.948303
1590.000000	88.954028
1588.000000	88.916756
1586.000000	88.848273
1584.000000	88.773421
1582.000000	88.722304
1580.000000	88.584711
1578.000000	87.895965
1576.000000	87.402021
1574.000000	88.013906
1572.000000	88.196129
1570.000000	87.813177
1568.000000	87.827346
1566.000000	87.844806
1564.000000	87.551473
1562.000000	86.558349
1560.000000	84.977233
1558.000000	84.970018
1556.000000	86.072700
1554.000000	86.712789
1552.000000	87.215163
1550.000000	87.518730
1548.000000	87.699681
1546.000000	87.612783
1544.000000	87.312625
1542.000000	86.747819
1540.000000	86.454389
1538.000000	87.483356
1536.000000	88.503067
1534.000000	88.553995
1532.000000	88.825229
1530.000000	89.092243
1528.000000	88.945892
1526.000000	88.703677
1524.000000	88.388977
1522.000000	87.806861
1520.000000	87.879488
1518.000000	88.141934
1516.000000	88.083998
1514.000000	88.028323
1512.000000	87.830850
1510.000000	87.347245
1508.000000	86.150999
1506.000000	85.467464
1504.000000	85.731686
1502.000000	84.937221
1500.000000	82.480659
1498.000000	79.179584
1496.000000	76.662773
1494.000000	76.285476
1492.000000	77.377143
1490.000000	79.119526
1488.000000	81.066381
1486.000000	82.669063
1484.000000	83.718142
1482.000000	84.232171
1480.000000	84.472097
1478.000000	84.399846
1476.000000	84.050614
1474.000000	83.519165
1472.000000	83.332943
1470.000000	83.586404
1468.000000	83.444903
1466.000000	82.851746
1464.000000	82.461409
1462.000000	82.199506
1460.000000	81.244229
1458.000000	79.577413
1456.000000	78.559464
1454.000000	78.268086
1452.000000	77.817046
1450.000000	77.890431
1448.000000	78.714628
1446.000000	79.697484
1444.000000	80.195057
1442.000000	80.313247
1440.000000	80.206322
1438.000000	79.802264
1436.000000	79.765702
1434.000000	80.243363
1432.000000	80.344808
1430.000000	80.275248
1428.000000	80.311410
1426.000000	80.317943
1424.000000	80.207800
1422.000000	79.964921
1420.000000	79.427766
1418.000000	79.370001
1416.000000	79.575367
1414.000000	79.468245
1412.000000	79.116990
1410.000000	78.591241
1408.000000	77.834945
1406.000000	77.005308
1404.000000	76.536777
1402.000000	76.554921
1400.000000	76.768303
1398.000000	77.192765
1396.000000	77.562247
1394.000000	77.885149
1392.000000	78.237561
1390.000000	78.244664
1388.000000	77.909011
1386.000000	77.635909
1384.000000	77.560633
1382.000000	77.670360
1380.000000	77.766095
1378.000000	77.710216
1376.000000	77.543706
1374.000000	77.403140
1372.000000	77.379329
1370.000000	77.292341
1368.000000	77.136794
1366.000000	76.974105
1364.000000	76.729325
1362.000000	76.538351
1360.000000	76.457920
1358.000000	76.338937
1356.000000	76.144683
1354.000000	75.938009
1352.000000	75.732706
1350.000000	75.519914
1348.000000	75.301034
1346.000000	75.072061
1344.000000	74.823209
1342.000000	74.543179
1340.000000	74.278289
1338.000000	74.140938
1336.000000	74.075746
1334.000000	73.986019
1332.000000	73.836098
1330.000000	73.643015
1328.000000	73.420400
1326.000000	73.177792
1324.000000	72.914195
1322.000000	72.630894
1320.000000	72.319616
1318.000000	72.019184
1316.000000	71.726287
1314.000000	71.415385
1312.000000	71.101148
1310.000000	70.792836
1308.000000	70.465750
1306.000000	70.133016
1304.000000	69.793730
1302.000000	69.451109
1300.000000	69.106328
1298.000000	68.761175
1296.000000	68.405130
1294.000000	68.037431
1292.000000	67.653986
1290.000000	67.262058
1288.000000	66.858800
1286.000000	66.457573
1284.000000	66.046705
1282.000000	65.617107
1280.000000	65.157791
1278.000000	64.668146
1276.000000	64.129244
1274.000000	63.515547
1272.000000	62.789956
1270.000000	61.906567
1268.000000	60.800585
1266.000000	59.483829
1264.000000	58.114984
1262.000000	57.016248
1260.000000	56.468945
1258.000000	56.478113
1256.000000	56.768003
1254.000000	57.009271
1252.000000	57.002421
1250.000000	56.757890
1248.000000	56.362429
1246.000000	55.890764
1244.000000	55.383332
1242.000000	54.868430
1240.000000	54.359324
1238.000000	53.868332
1236.000000	53.391550
1234.000000	52.930280
1232.000000	52.475920
1230.000000	52.028964
1228.000000	51.583329
1226.000000	51.135307
1224.000000	50.676141
1222.000000	50.203668
1220.000000	49.710260
1218.000000	49.198798
1216.000000	48.676984
1214.000000	48.164119
1212.000000	47.673391
1210.000000	47.219934
1208.000000	46.801615
1206.000000	46.404693
1204.000000	46.006201
1202.000000	45.608107
1200.000000	45.215284
1198.000000	44.828619
1196.000000	44.435902
1194.000000	44.029544
1192.000000	43.611822
1190.000000	43.185958
1188.000000	42.743783
1186.000000	42.272989
1184.000000	41.690943
1182.000000	40.962748
1180.000000	40.394784
1178.000000	40.146903
1176.000000	39.916053
1174.000000	39.561844
1172.000000	39.135918
1170.000000	38.686043
1168.000000	38.219600
1166.000000	37.746061
1164.000000	37.272755
1162.000000	36.811012
1160.000000	36.357498
1158.000000	35.921484
1156.000000	35.496510
1154.000000	35.076461
1152.000000	34.650198
1150.000000	34.229481
1148.000000	33.801658
1146.000000	33.362655
1144.000000	32.931109
1142.000000	32.552690
1140.000000	32.239977
1138.000000	31.928471
1136.000000	31.569428
1134.000000	31.173180
1132.000000	30.754792
1130.000000	30.331316
1128.000000	29.909360
1126.000000	29.488004
1124.000000	29.056060
1122.000000	28.616079
1120.000000	28.168080
1118.000000	27.712744
1116.000000	27.246353
1114.000000	26.776994
1112.000000	26.307623
1110.000000	25.846436
1108.000000	25.393556
1106.000000	24.958223
1104.000000	24.541245
1102.000000	24.133207
1100.000000	23.720205
1098.000000	23.312108
1096.000000	22.913248
1094.000000	22.531744
1092.000000	22.165349
1090.000000	21.811983
1088.000000	21.468063
1086.000000	21.130098
1084.000000	20.782526
1082.000000	20.426684
1080.000000	20.088500
1078.000000	19.784844
1076.000000	19.508178
1074.000000	19.272762
1072.000000	19.055736
1070.000000	18.831600
1068.000000	18.599901
1066.000000	18.369086
1064.000000	18.135480
1062.000000	17.899056
1060.000000	17.650991
1058.000000	17.363499
1056.000000	16.976218
1054.000000	16.467049
1052.000000	15.959222
1050.000000	15.657615
1048.000000	15.622299
1046.000000	15.702991
1044.000000	15.702006
1042.000000	15.584954
1040.000000	15.400082
1038.000000	15.185754
1036.000000	14.958695
1034.000000	14.721909
1032.000000	14.471975
1030.000000	14.214522
1028.000000	13.950338
1026.000000	13.682797
1024.000000	13.410565
1022.000000	13.144747
1020.000000	12.889854
1018.000000	12.654876
1016.000000	12.439775
1014.000000	12.247493
1012.000000	12.076806
1010.000000	11.916432
1008.000000	11.749969
1006.000000	11.574278
1004.000000	11.379197
1002.000000	11.167515
1000.000000	10.938888
