PE IR       SUBTECH     SPECTRUM    ASCII       PEDS        4.00        
   -1
TE109A_064_130K_SB.ASC
20/04/21
18:40:28.00
20/04/21
18:40:28.00
Administrator
TE109A, Tuesday, April 21 2020, 064.
1000.000000
#HDR
-1
-1
#GR
cm-1
EGY
1.0
0.0
6000.000000
-2.000000
2501
8
11.099231
1.163350
#DATA
6000.000000	1.934566
5998.000000	1.938654
5996.000000	1.943059
5994.000000	1.947271
5992.000000	1.950403
5990.000000	1.952710
5988.000000	1.955493
5986.000000	1.958860
5984.000000	1.962914
5982.000000	1.965814
5980.000000	1.969406
5978.000000	1.973560
5976.000000	1.978088
5974.000000	1.983256
5972.000000	1.988511
5970.000000	1.994210
5968.000000	1.999593
5966.000000	2.002805
5964.000000	2.005751
5962.000000	2.008453
5960.000000	2.011707
5958.000000	2.015698
5956.000000	2.018782
5954.000000	2.023518
5952.000000	2.028627
5950.000000	2.033409
5948.000000	2.037594
5946.000000	2.041631
5944.000000	2.046515
5942.000000	2.050639
5940.000000	2.053645
5938.000000	2.056321
5936.000000	2.060443
5934.000000	2.064401
5932.000000	2.068010
5930.000000	2.071640
5928.000000	2.075539
5926.000000	2.079240
5924.000000	2.082520
5922.000000	2.087521
5920.000000	2.093314
5918.000000	2.097335
5916.000000	2.099967
5914.000000	2.103816
5912.000000	2.110595
5910.000000	2.118115
5908.000000	2.122303
5906.000000	2.124026
5904.000000	2.126005
5902.000000	2.129481
5900.000000	2.135319
5898.000000	2.139951
5896.000000	2.144426
5894.000000	2.148591
5892.000000	2.152956
5890.000000	2.157778
5888.000000	2.162129
5886.000000	2.165761
5884.000000	2.169647
5882.000000	2.172870
5880.000000	2.176704
5878.000000	2.181586
5876.000000	2.185902
5874.000000	2.189705
5872.000000	2.193058
5870.000000	2.197155
5868.000000	2.202485
5866.000000	2.206780
5864.000000	2.211898
5862.000000	2.217231
5860.000000	2.220657
5858.000000	2.223457
5856.000000	2.226604
5854.000000	2.231055
5852.000000	2.236183
5850.000000	2.239581
5848.000000	2.244005
5846.000000	2.250492
5844.000000	2.258024
5842.000000	2.263964
5840.000000	2.267739
5838.000000	2.271222
5836.000000	2.276052
5834.000000	2.280777
5832.000000	2.284831
5830.000000	2.289261
5828.000000	2.294437
5826.000000	2.299247
5824.000000	2.303731
5822.000000	2.309932
5820.000000	2.315759
5818.000000	2.321013
5816.000000	2.325517
5814.000000	2.328890
5812.000000	2.332461
5810.000000	2.335636
5808.000000	2.339245
5806.000000	2.344144
5804.000000	2.348502
5802.000000	2.354330
5800.000000	2.360634
5798.000000	2.367233
5796.000000	2.372742
5794.000000	2.376403
5792.000000	2.379524
5790.000000	2.382895
5788.000000	2.387497
5786.000000	2.392768
5784.000000	2.398061
5782.000000	2.403402
5780.000000	2.408153
5778.000000	2.411865
5776.000000	2.416958
5774.000000	2.423446
5772.000000	2.429932
5770.000000	2.436171
5768.000000	2.440680
5766.000000	2.444497
5764.000000	2.447487
5762.000000	2.451306
5760.000000	2.458161
5758.000000	2.464695
5756.000000	2.468931
5754.000000	2.471550
5752.000000	2.474949
5750.000000	2.479142
5748.000000	2.484844
5746.000000	2.490608
5744.000000	2.497045
5742.000000	2.503748
5740.000000	2.508188
5738.000000	2.512049
5736.000000	2.514292
5734.000000	2.518021
5732.000000	2.523160
5730.000000	2.528898
5728.000000	2.536070
5726.000000	2.542512
5724.000000	2.546493
5722.000000	2.548450
5720.000000	2.552585
5718.000000	2.559123
5716.000000	2.563983
5714.000000	2.567097
5712.000000	2.570316
5710.000000	2.576478
5708.000000	2.582448
5706.000000	2.586927
5704.000000	2.592220
5702.000000	2.599130
5700.000000	2.606450
5698.000000	2.611502
5696.000000	2.615125
5694.000000	2.619240
5692.000000	2.624411
5690.000000	2.629993
5688.000000	2.634851
5686.000000	2.639735
5684.000000	2.644820
5682.000000	2.649550
5680.000000	2.654587
5678.000000	2.659554
5676.000000	2.665624
5674.000000	2.670959
5672.000000	2.676999
5670.000000	2.683391
5668.000000	2.690539
5666.000000	2.695563
5664.000000	2.699344
5662.000000	2.702983
5660.000000	2.706841
5658.000000	2.712300
5656.000000	2.719524
5654.000000	2.726366
5652.000000	2.731720
5650.000000	2.735180
5648.000000	2.739844
5646.000000	2.746116
5644.000000	2.751811
5642.000000	2.758366
5640.000000	2.763373
5638.000000	2.768428
5636.000000	2.772887
5634.000000	2.777151
5632.000000	2.783282
5630.000000	2.788685
5628.000000	2.794474
5626.000000	2.800724
5624.000000	2.805948
5622.000000	2.810672
5620.000000	2.815032
5618.000000	2.820746
5616.000000	2.825932
5614.000000	2.831143
5612.000000	2.836400
5610.000000	2.841724
5608.000000	2.845594
5606.000000	2.849748
5604.000000	2.855663
5602.000000	2.862119
5600.000000	2.868639
5598.000000	2.874085
5596.000000	2.878937
5594.000000	2.884389
5592.000000	2.889992
5590.000000	2.894611
5588.000000	2.898773
5586.000000	2.904556
5584.000000	2.910293
5582.000000	2.914157
5580.000000	2.919526
5578.000000	2.926378
5576.000000	2.933837
5574.000000	2.939499
5572.000000	2.945300
5570.000000	2.952153
5568.000000	2.957374
5566.000000	2.961408
5564.000000	2.966368
5562.000000	2.972306
5560.000000	2.977678
5558.000000	2.982016
5556.000000	2.987154
5554.000000	2.994516
5552.000000	3.000347
5550.000000	3.005254
5548.000000	3.011822
5546.000000	3.018934
5544.000000	3.025318
5542.000000	3.031496
5540.000000	3.037556
5538.000000	3.042567
5536.000000	3.044639
5534.000000	3.047967
5532.000000	3.054220
5530.000000	3.060852
5528.000000	3.066903
5526.000000	3.071649
5524.000000	3.077211
5522.000000	3.083802
5520.000000	3.090050
5518.000000	3.095664
5516.000000	3.100383
5514.000000	3.105873
5512.000000	3.113246
5510.000000	3.119612
5508.000000	3.123338
5506.000000	3.126174
5504.000000	3.131720
5502.000000	3.139211
5500.000000	3.145607
5498.000000	3.151540
5496.000000	3.156451
5494.000000	3.159880
5492.000000	3.163134
5490.000000	3.169047
5488.000000	3.177469
5486.000000	3.184685
5484.000000	3.189569
5482.000000	3.193916
5480.000000	3.199587
5478.000000	3.206476
5476.000000	3.211962
5474.000000	3.216662
5472.000000	3.221807
5470.000000	3.228639
5468.000000	3.235357
5466.000000	3.241801
5464.000000	3.247589
5462.000000	3.252649
5460.000000	3.258089
5458.000000	3.264446
5456.000000	3.271256
5454.000000	3.276877
5452.000000	3.281521
5450.000000	3.286408
5448.000000	3.292245
5446.000000	3.298186
5444.000000	3.303424
5442.000000	3.308156
5440.000000	3.314215
5438.000000	3.320865
5436.000000	3.326763
5434.000000	3.330937
5432.000000	3.335231
5430.000000	3.341631
5428.000000	3.348897
5426.000000	3.355418
5424.000000	3.360403
5422.000000	3.366632
5420.000000	3.373596
5418.000000	3.377741
5416.000000	3.378915
5414.000000	3.382725
5412.000000	3.389725
5410.000000	3.398398
5408.000000	3.406559
5406.000000	3.413924
5404.000000	3.421195
5402.000000	3.426569
5400.000000	3.431841
5398.000000	3.436378
5396.000000	3.440100
5394.000000	3.444879
5392.000000	3.451047
5390.000000	3.458009
5388.000000	3.464202
5386.000000	3.469692
5384.000000	3.475646
5382.000000	3.481179
5380.000000	3.485745
5378.000000	3.491326
5376.000000	3.498270
5374.000000	3.505039
5372.000000	3.511229
5370.000000	3.517123
5368.000000	3.523563
5366.000000	3.530037
5364.000000	3.536336
5362.000000	3.543147
5360.000000	3.549472
5358.000000	3.553524
5356.000000	3.556109
5354.000000	3.560735
5352.000000	3.568674
5350.000000	3.575805
5348.000000	3.580160
5346.000000	3.585155
5344.000000	3.591906
5342.000000	3.597722
5340.000000	3.602553
5338.000000	3.608153
5336.000000	3.614168
5334.000000	3.619669
5332.000000	3.625598
5330.000000	3.632645
5328.000000	3.638862
5326.000000	3.645283
5324.000000	3.652504
5322.000000	3.659104
5320.000000	3.664253
5318.000000	3.670134
5316.000000	3.675880
5314.000000	3.679713
5312.000000	3.683288
5310.000000	3.689486
5308.000000	3.696815
5306.000000	3.703371
5304.000000	3.708843
5302.000000	3.713660
5300.000000	3.718767
5298.000000	3.723895
5296.000000	3.729086
5294.000000	3.733558
5292.000000	3.737452
5290.000000	3.743635
5288.000000	3.750996
5286.000000	3.758596
5284.000000	3.764077
5282.000000	3.770226
5280.000000	3.778035
5278.000000	3.784766
5276.000000	3.790123
5274.000000	3.794844
5272.000000	3.798727
5270.000000	3.802556
5268.000000	3.808010
5266.000000	3.815207
5264.000000	3.820521
5262.000000	3.826006
5260.000000	3.833284
5258.000000	3.839570
5256.000000	3.843523
5254.000000	3.847087
5252.000000	3.852170
5250.000000	3.857201
5248.000000	3.862948
5246.000000	3.868848
5244.000000	3.874087
5242.000000	3.879896
5240.000000	3.886699
5238.000000	3.893092
5236.000000	3.897640
5234.000000	3.901396
5232.000000	3.904737
5230.000000	3.908712
5228.000000	3.913758
5226.000000	3.920961
5224.000000	3.928637
5222.000000	3.934145
5220.000000	3.937942
5218.000000	3.942756
5216.000000	3.948906
5214.000000	3.953725
5212.000000	3.956496
5210.000000	3.959633
5208.000000	3.963115
5206.000000	3.968684
5204.000000	3.975585
5202.000000	3.983110
5200.000000	3.988793
5198.000000	3.992642
5196.000000	3.996258
5194.000000	4.001707
5192.000000	4.007430
5190.000000	4.011842
5188.000000	4.016326
5186.000000	4.022654
5184.000000	4.028565
5182.000000	4.032866
5180.000000	4.038162
5178.000000	4.044234
5176.000000	4.049532
5174.000000	4.054705
5172.000000	4.060935
5170.000000	4.065590
5168.000000	4.068161
5166.000000	4.072528
5164.000000	4.079354
5162.000000	4.085552
5160.000000	4.090829
5158.000000	4.096727
5156.000000	4.101971
5154.000000	4.105411
5152.000000	4.109318
5150.000000	4.114945
5148.000000	4.121039
5146.000000	4.125987
5144.000000	4.130835
5142.000000	4.136071
5140.000000	4.141443
5138.000000	4.145914
5136.000000	4.150156
5134.000000	4.156284
5132.000000	4.162221
5130.000000	4.165826
5128.000000	4.169406
5126.000000	4.175462
5124.000000	4.182240
5122.000000	4.186956
5120.000000	4.190766
5118.000000	4.195273
5116.000000	4.201337
5114.000000	4.207076
5112.000000	4.212147
5110.000000	4.217426
5108.000000	4.223902
5106.000000	4.231342
5104.000000	4.238071
5102.000000	4.243071
5100.000000	4.246261
5098.000000	4.251889
5096.000000	4.258821
5094.000000	4.264911
5092.000000	4.269483
5090.000000	4.274935
5088.000000	4.280910
5086.000000	4.286280
5084.000000	4.291475
5082.000000	4.296676
5080.000000	4.303119
5078.000000	4.310591
5076.000000	4.317808
5074.000000	4.324198
5072.000000	4.329154
5070.000000	4.333267
5068.000000	4.338402
5066.000000	4.345367
5064.000000	4.352886
5062.000000	4.359395
5060.000000	4.366432
5058.000000	4.373307
5056.000000	4.379651
5054.000000	4.384194
5052.000000	4.389016
5050.000000	4.395527
5048.000000	4.403884
5046.000000	4.410430
5044.000000	4.415292
5042.000000	4.420562
5040.000000	4.425360
5038.000000	4.429770
5036.000000	4.435380
5034.000000	4.442084
5032.000000	4.447809
5030.000000	4.453553
5028.000000	4.460083
5026.000000	4.465740
5024.000000	4.471001
5022.000000	4.477757
5020.000000	4.485838
5018.000000	4.493030
5016.000000	4.498623
5014.000000	4.503656
5012.000000	4.509676
5010.000000	4.517619
5008.000000	4.526374
5006.000000	4.533601
5004.000000	4.539059
5002.000000	4.544985
5000.000000	4.551850
4998.000000	4.558703
4996.000000	4.564676
4994.000000	4.570492
4992.000000	4.576770
4990.000000	4.582789
4988.000000	4.587423
4986.000000	4.591845
4984.000000	4.598819
4982.000000	4.608410
4980.000000	4.618060
4978.000000	4.626177
4976.000000	4.632235
4974.000000	4.637389
4972.000000	4.643548
4970.000000	4.650576
4968.000000	4.657354
4966.000000	4.663513
4964.000000	4.670606
4962.000000	4.678461
4960.000000	4.685772
4958.000000	4.691812
4956.000000	4.697903
4954.000000	4.705757
4952.000000	4.714644
4950.000000	4.722056
4948.000000	4.726684
4946.000000	4.730231
4944.000000	4.734739
4942.000000	4.741192
4940.000000	4.748933
4938.000000	4.756410
4936.000000	4.763551
4934.000000	4.770587
4932.000000	4.776955
4930.000000	4.783179
4928.000000	4.790137
4926.000000	4.796719
4924.000000	4.802682
4922.000000	4.808836
4920.000000	4.815593
4918.000000	4.822879
4916.000000	4.830468
4914.000000	4.837600
4912.000000	4.845186
4910.000000	4.852768
4908.000000	4.859424
4906.000000	4.865216
4904.000000	4.871670
4902.000000	4.881054
4900.000000	4.890954
4898.000000	4.897918
4896.000000	4.902711
4894.000000	4.909116
4892.000000	4.916802
4890.000000	4.924944
4888.000000	4.932726
4886.000000	4.940093
4884.000000	4.948196
4882.000000	4.956479
4880.000000	4.963081
4878.000000	4.969460
4876.000000	4.977130
4874.000000	4.984337
4872.000000	4.990966
4870.000000	4.998206
4868.000000	5.006278
4866.000000	5.015249
4864.000000	5.024789
4862.000000	5.032667
4860.000000	5.039280
4858.000000	5.046324
4856.000000	5.053955
4854.000000	5.060957
4852.000000	5.067919
4850.000000	5.075471
4848.000000	5.083371
4846.000000	5.091037
4844.000000	5.097475
4842.000000	5.103603
4840.000000	5.109924
4838.000000	5.117114
4836.000000	5.124369
4834.000000	5.131230
4832.000000	5.138122
4830.000000	5.147067
4828.000000	5.156563
4826.000000	5.164242
4824.000000	5.171001
4822.000000	5.178222
4820.000000	5.186017
4818.000000	5.194037
4816.000000	5.201763
4814.000000	5.209042
4812.000000	5.217216
4810.000000	5.226422
4808.000000	5.235658
4806.000000	5.245480
4804.000000	5.253877
4802.000000	5.259882
4800.000000	5.265872
4798.000000	5.273869
4796.000000	5.283470
4794.000000	5.293101
4792.000000	5.302564
4790.000000	5.310724
4788.000000	5.316829
4786.000000	5.323415
4784.000000	5.332764
4782.000000	5.342214
4780.000000	5.349465
4778.000000	5.357613
4776.000000	5.366698
4774.000000	5.375526
4772.000000	5.384351
4770.000000	5.393380
4768.000000	5.401367
4766.000000	5.409409
4764.000000	5.417274
4762.000000	5.424939
4760.000000	5.432848
4758.000000	5.441011
4756.000000	5.449172
4754.000000	5.457400
4752.000000	5.465078
4750.000000	5.471529
4748.000000	5.478053
4746.000000	5.486596
4744.000000	5.496005
4742.000000	5.504697
4740.000000	5.513034
4738.000000	5.522150
4736.000000	5.529868
4734.000000	5.537130
4732.000000	5.545439
4730.000000	5.553100
4728.000000	5.559778
4726.000000	5.567410
4724.000000	5.575918
4722.000000	5.583972
4720.000000	5.591448
4718.000000	5.599070
4716.000000	5.607463
4714.000000	5.616559
4712.000000	5.625139
4710.000000	5.633161
4708.000000	5.640879
4706.000000	5.648840
4704.000000	5.658263
4702.000000	5.667803
4700.000000	5.675709
4698.000000	5.682860
4696.000000	5.691445
4694.000000	5.700898
4692.000000	5.709967
4690.000000	5.718350
4688.000000	5.725774
4686.000000	5.734556
4684.000000	5.744230
4682.000000	5.752696
4680.000000	5.759226
4678.000000	5.766698
4676.000000	5.774467
4674.000000	5.782468
4672.000000	5.790452
4670.000000	5.798444
4668.000000	5.806740
4666.000000	5.815251
4664.000000	5.823329
4662.000000	5.831084
4660.000000	5.838936
4658.000000	5.846443
4656.000000	5.853249
4654.000000	5.860136
4652.000000	5.868139
4650.000000	5.877019
4648.000000	5.885850
4646.000000	5.893751
4644.000000	5.900439
4642.000000	5.907819
4640.000000	5.916472
4638.000000	5.924305
4636.000000	5.931739
4634.000000	5.940089
4632.000000	5.948133
4630.000000	5.955590
4628.000000	5.962935
4626.000000	5.970016
4624.000000	5.977386
4622.000000	5.985996
4620.000000	5.995106
4618.000000	6.003498
4616.000000	6.010794
4614.000000	6.017922
4612.000000	6.026036
4610.000000	6.034015
4608.000000	6.041005
4606.000000	6.048687
4604.000000	6.057816
4602.000000	6.066447
4600.000000	6.074635
4598.000000	6.083620
4596.000000	6.092873
4594.000000	6.100670
4592.000000	6.108122
4590.000000	6.115784
4588.000000	6.123822
4586.000000	6.131848
4584.000000	6.139431
4582.000000	6.147112
4580.000000	6.155949
4578.000000	6.164826
4576.000000	6.172543
4574.000000	6.181005
4572.000000	6.191032
4570.000000	6.199485
4568.000000	6.204883
4566.000000	6.209701
4564.000000	6.216764
4562.000000	6.226634
4560.000000	6.237549
4558.000000	6.245734
4556.000000	6.251958
4554.000000	6.259428
4552.000000	6.267533
4550.000000	6.274345
4548.000000	6.280804
4546.000000	6.288613
4544.000000	6.297092
4542.000000	6.305041
4540.000000	6.313258
4538.000000	6.321180
4536.000000	6.327623
4534.000000	6.334494
4532.000000	6.343129
4530.000000	6.352147
4528.000000	6.360883
4526.000000	6.369335
4524.000000	6.376856
4522.000000	6.382843
4520.000000	6.388761
4518.000000	6.396318
4516.000000	6.404636
4514.000000	6.411947
4512.000000	6.420412
4510.000000	6.430020
4508.000000	6.438011
4506.000000	6.444820
4504.000000	6.453098
4502.000000	6.462103
4500.000000	6.470819
4498.000000	6.479552
4496.000000	6.487365
4494.000000	6.495026
4492.000000	6.503119
4490.000000	6.510967
4488.000000	6.518951
4486.000000	6.527523
4484.000000	6.534809
4482.000000	6.541741
4480.000000	6.550378
4478.000000	6.559334
4476.000000	6.567564
4474.000000	6.575433
4472.000000	6.582576
4470.000000	6.589780
4468.000000	6.597938
4466.000000	6.605705
4464.000000	6.612499
4462.000000	6.619633
4460.000000	6.627529
4458.000000	6.635410
4456.000000	6.642032
4454.000000	6.648581
4452.000000	6.655510
4450.000000	6.662322
4448.000000	6.670687
4446.000000	6.679580
4444.000000	6.686655
4442.000000	6.693678
4440.000000	6.701585
4438.000000	6.708532
4436.000000	6.715821
4434.000000	6.724340
4432.000000	6.732143
4430.000000	6.737789
4428.000000	6.743872
4426.000000	6.751497
4424.000000	6.758470
4422.000000	6.766087
4420.000000	6.775755
4418.000000	6.785332
4416.000000	6.793222
4414.000000	6.800571
4412.000000	6.807378
4410.000000	6.814595
4408.000000	6.822653
4406.000000	6.830424
4404.000000	6.837450
4402.000000	6.845285
4400.000000	6.853945
4398.000000	6.862937
4396.000000	6.871916
4394.000000	6.879838
4392.000000	6.886592
4390.000000	6.892336
4388.000000	6.898653
4386.000000	6.906529
4384.000000	6.913969
4382.000000	6.919419
4380.000000	6.925269
4378.000000	6.932524
4376.000000	6.939340
4374.000000	6.946436
4372.000000	6.954803
4370.000000	6.961326
4368.000000	6.965978
4366.000000	6.972422
4364.000000	6.980217
4362.000000	6.987369
4360.000000	6.994766
4358.000000	7.001880
4356.000000	7.007650
4354.000000	7.013772
4352.000000	7.021611
4350.000000	7.029066
4348.000000	7.035730
4346.000000	7.043769
4344.000000	7.051779
4342.000000	7.057725
4340.000000	7.063603
4338.000000	7.070759
4336.000000	7.077733
4334.000000	7.083944
4332.000000	7.090682
4330.000000	7.098928
4328.000000	7.107595
4326.000000	7.115556
4324.000000	7.122472
4322.000000	7.128474
4320.000000	7.134753
4318.000000	7.142078
4316.000000	7.150415
4314.000000	7.159392
4312.000000	7.167249
4310.000000	7.173642
4308.000000	7.180924
4306.000000	7.189852
4304.000000	7.198269
4302.000000	7.205290
4300.000000	7.211728
4298.000000	7.218706
4296.000000	7.225269
4294.000000	7.231695
4292.000000	7.240187
4290.000000	7.249418
4288.000000	7.257006
4286.000000	7.263960
4284.000000	7.270246
4282.000000	7.275804
4280.000000	7.282041
4278.000000	7.289480
4276.000000	7.297296
4274.000000	7.304150
4272.000000	7.309289
4270.000000	7.314063
4268.000000	7.319976
4266.000000	7.327781
4264.000000	7.335905
4262.000000	7.343473
4260.000000	7.350303
4258.000000	7.356304
4256.000000	7.361353
4254.000000	7.366871
4252.000000	7.374298
4250.000000	7.383442
4248.000000	7.391841
4246.000000	7.399348
4244.000000	7.406811
4242.000000	7.414009
4240.000000	7.420514
4238.000000	7.427259
4236.000000	7.434804
4234.000000	7.442263
4232.000000	7.449309
4230.000000	7.457373
4228.000000	7.465639
4226.000000	7.472918
4224.000000	7.479848
4222.000000	7.487604
4220.000000	7.494894
4218.000000	7.501482
4216.000000	7.509543
4214.000000	7.518420
4212.000000	7.525520
4210.000000	7.532625
4208.000000	7.540558
4206.000000	7.548137
4204.000000	7.556164
4202.000000	7.565395
4200.000000	7.574182
4198.000000	7.582270
4196.000000	7.590487
4194.000000	7.598301
4192.000000	7.605514
4190.000000	7.612818
4188.000000	7.620561
4186.000000	7.629287
4184.000000	7.638361
4182.000000	7.647230
4180.000000	7.655671
4178.000000	7.662376
4176.000000	7.666758
4174.000000	7.672221
4172.000000	7.681305
4170.000000	7.690718
4168.000000	7.697918
4166.000000	7.705349
4164.000000	7.712968
4162.000000	7.720539
4160.000000	7.728233
4158.000000	7.735255
4156.000000	7.742807
4154.000000	7.751091
4152.000000	7.758895
4150.000000	7.766858
4148.000000	7.775015
4146.000000	7.783043
4144.000000	7.790443
4142.000000	7.797603
4140.000000	7.805706
4138.000000	7.814641
4136.000000	7.823159
4134.000000	7.830587
4132.000000	7.837069
4130.000000	7.843631
4128.000000	7.851206
4126.000000	7.859538
4124.000000	7.867672
4122.000000	7.876846
4120.000000	7.886702
4118.000000	7.894424
4116.000000	7.900539
4114.000000	7.908269
4112.000000	7.917196
4110.000000	7.924615
4108.000000	7.930188
4106.000000	7.937204
4104.000000	7.946627
4102.000000	7.955985
4100.000000	7.963991
4098.000000	7.972061
4096.000000	7.980881
4094.000000	7.989237
4092.000000	7.996915
4090.000000	8.005638
4088.000000	8.014970
4086.000000	8.023075
4084.000000	8.030569
4082.000000	8.039196
4080.000000	8.047841
4078.000000	8.054879
4076.000000	8.061287
4074.000000	8.068942
4072.000000	8.077210
4070.000000	8.085179
4068.000000	8.093020
4066.000000	8.101835
4064.000000	8.110176
4062.000000	8.117221
4060.000000	8.125488
4058.000000	8.134437
4056.000000	8.141167
4054.000000	8.147518
4052.000000	8.156069
4050.000000	8.166517
4048.000000	8.175202
4046.000000	8.182370
4044.000000	8.190902
4042.000000	8.199083
4040.000000	8.206397
4038.000000	8.214492
4036.000000	8.221989
4034.000000	8.229009
4032.000000	8.236824
4030.000000	8.246266
4028.000000	8.256084
4026.000000	8.264353
4024.000000	8.271590
4022.000000	8.279118
4020.000000	8.287628
4018.000000	8.295947
4016.000000	8.304214
4014.000000	8.313531
4012.000000	8.321954
4010.000000	8.329857
4008.000000	8.338088
4006.000000	8.346910
4004.000000	8.357680
4002.000000	8.368682
4000.000000	8.377845
3998.000000	8.385775
3996.000000	8.393520
3994.000000	8.401148
3992.000000	8.408264
3990.000000	8.415752
3988.000000	8.424781
3986.000000	8.433719
3984.000000	8.439715
3982.000000	8.446020
3980.000000	8.455892
3978.000000	8.464953
3976.000000	8.471543
3974.000000	8.478209
3972.000000	8.486954
3970.000000	8.498737
3968.000000	8.508960
3966.000000	8.516103
3964.000000	8.523866
3962.000000	8.532844
3960.000000	8.542058
3958.000000	8.550412
3956.000000	8.558357
3954.000000	8.565826
3952.000000	8.570771
3950.000000	8.575517
3948.000000	8.583664
3946.000000	8.592966
3944.000000	8.600889
3942.000000	8.611623
3940.000000	8.624361
3938.000000	8.633255
3936.000000	8.638838
3934.000000	8.643795
3932.000000	8.651847
3930.000000	8.664580
3928.000000	8.675050
3926.000000	8.682871
3924.000000	8.692788
3922.000000	8.700494
3920.000000	8.705129
3918.000000	8.713633
3916.000000	8.729623
3914.000000	8.748287
3912.000000	8.761340
3910.000000	8.768746
3908.000000	8.767934
3906.000000	8.755822
3904.000000	8.747518
3902.000000	8.755180
3900.000000	8.776296
3898.000000	8.806158
3896.000000	8.828106
3894.000000	8.827733
3892.000000	8.826282
3890.000000	8.839129
3888.000000	8.841557
3886.000000	8.841249
3884.000000	8.857882
3882.000000	8.871320
3880.000000	8.884476
3878.000000	8.903034
3876.000000	8.910521
3874.000000	8.906742
3872.000000	8.894368
3870.000000	8.894966
3868.000000	8.915695
3866.000000	8.930763
3864.000000	8.945673
3862.000000	8.968751
3860.000000	8.985015
3858.000000	8.963302
3856.000000	8.892338
3854.000000	8.858732
3852.000000	8.922952
3850.000000	9.008264
3848.000000	9.047828
3846.000000	9.054140
3844.000000	9.050579
3842.000000	9.038795
3840.000000	9.013851
3838.000000	9.010902
3836.000000	9.047633
3834.000000	9.083147
3832.000000	9.102961
3830.000000	9.120313
3828.000000	9.134956
3826.000000	9.142828
3824.000000	9.130401
3822.000000	9.116184
3820.000000	9.123850
3818.000000	9.125025
3816.000000	9.137856
3814.000000	9.185794
3812.000000	9.219075
3810.000000	9.212299
3808.000000	9.196406
3806.000000	9.201068
3804.000000	9.196902
3802.000000	9.189744
3800.000000	9.222524
3798.000000	9.261528
3796.000000	9.283097
3794.000000	9.301903
3792.000000	9.314658
3790.000000	9.322745
3788.000000	9.328484
3786.000000	9.332274
3784.000000	9.338447
3782.000000	9.342229
3780.000000	9.346503
3778.000000	9.360625
3776.000000	9.375182
3774.000000	9.379101
3772.000000	9.371836
3770.000000	9.370910
3768.000000	9.384416
3766.000000	9.400045
3764.000000	9.411897
3762.000000	9.413088
3760.000000	9.410501
3758.000000	9.418062
3756.000000	9.412261
3754.000000	9.368362
3752.000000	9.327961
3750.000000	9.340767
3748.000000	9.361098
3746.000000	9.342862
3744.000000	9.366507
3742.000000	9.439511
3740.000000	9.464687
3738.000000	9.443797
3736.000000	9.432961
3734.000000	9.445723
3732.000000	9.473681
3730.000000	9.502959
3728.000000	9.514091
3726.000000	9.517739
3724.000000	9.526340
3722.000000	9.537423
3720.000000	9.548857
3718.000000	9.557152
3716.000000	9.549586
3714.000000	9.520685
3712.000000	9.507268
3710.000000	9.530510
3708.000000	9.562867
3706.000000	9.578830
3704.000000	9.574775
3702.000000	9.570936
3700.000000	9.579754
3698.000000	9.586675
3696.000000	9.584964
3694.000000	9.571595
3692.000000	9.537735
3690.000000	9.502656
3688.000000	9.513393
3686.000000	9.558071
3684.000000	9.581794
3682.000000	9.577007
3680.000000	9.551567
3678.000000	9.501465
3676.000000	9.469497
3674.000000	9.479060
3672.000000	9.476374
3670.000000	9.478807
3668.000000	9.512786
3666.000000	9.536391
3664.000000	9.536063
3662.000000	9.526332
3660.000000	9.506239
3658.000000	9.475764
3656.000000	9.460662
3654.000000	9.448747
3652.000000	9.403513
3650.000000	9.361487
3648.000000	9.368185
3646.000000	9.396838
3644.000000	9.407909
3642.000000	9.400409
3640.000000	9.385948
3638.000000	9.369283
3636.000000	9.350769
3634.000000	9.327149
3632.000000	9.280567
3630.000000	9.229796
3628.000000	9.229877
3626.000000	9.255097
3624.000000	9.252584
3622.000000	9.221042
3620.000000	9.189341
3618.000000	9.180401
3616.000000	9.173407
3614.000000	9.153624
3612.000000	9.131316
3610.000000	9.112652
3608.000000	9.107204
3606.000000	9.109205
3604.000000	9.101713
3602.000000	9.085691
3600.000000	9.070038
3598.000000	9.054349
3596.000000	9.037806
3594.000000	9.026500
3592.000000	9.013821
3590.000000	8.990107
3588.000000	8.971404
3586.000000	8.971602
3584.000000	8.975763
3582.000000	8.971627
3580.000000	8.962693
3578.000000	8.953163
3576.000000	8.944082
3574.000000	8.935594
3572.000000	8.924068
3570.000000	8.903413
3568.000000	8.885801
3566.000000	8.886342
3564.000000	8.892264
3562.000000	8.890749
3560.000000	8.884689
3558.000000	8.881238
3556.000000	8.877582
3554.000000	8.869504
3552.000000	8.863595
3550.000000	8.858828
3548.000000	8.848956
3546.000000	8.841773
3544.000000	8.841354
3542.000000	8.840381
3540.000000	8.836221
3538.000000	8.830024
3536.000000	8.823532
3534.000000	8.817952
3532.000000	8.811275
3530.000000	8.803797
3528.000000	8.797095
3526.000000	8.789925
3524.000000	8.781938
3522.000000	8.775615
3520.000000	8.770000
3518.000000	8.764893
3516.000000	8.759207
3514.000000	8.750052
3512.000000	8.738205
3510.000000	8.727273
3508.000000	8.719637
3506.000000	8.708960
3504.000000	8.693979
3502.000000	8.683557
3500.000000	8.677098
3498.000000	8.668071
3496.000000	8.656461
3494.000000	8.643929
3492.000000	8.631977
3490.000000	8.621591
3488.000000	8.611733
3486.000000	8.601682
3484.000000	8.591255
3482.000000	8.583451
3480.000000	8.577921
3478.000000	8.572845
3476.000000	8.568440
3474.000000	8.564440
3472.000000	8.561325
3470.000000	8.558168
3468.000000	8.553822
3466.000000	8.551720
3464.000000	8.551535
3462.000000	8.550745
3460.000000	8.549927
3458.000000	8.549368
3456.000000	8.549235
3454.000000	8.548679
3452.000000	8.547576
3450.000000	8.544622
3448.000000	8.540468
3446.000000	8.538980
3444.000000	8.540174
3442.000000	8.542747
3440.000000	8.547970
3438.000000	8.554347
3436.000000	8.562979
3434.000000	8.573955
3432.000000	8.584863
3430.000000	8.596109
3428.000000	8.608473
3426.000000	8.621800
3424.000000	8.633040
3422.000000	8.641641
3420.000000	8.649881
3418.000000	8.657672
3416.000000	8.664717
3414.000000	8.670435
3412.000000	8.675262
3410.000000	8.680628
3408.000000	8.686856
3406.000000	8.690318
3404.000000	8.691920
3402.000000	8.697246
3400.000000	8.704423
3398.000000	8.710603
3396.000000	8.715987
3394.000000	8.721879
3392.000000	8.729293
3390.000000	8.735957
3388.000000	8.741098
3386.000000	8.745988
3384.000000	8.750984
3382.000000	8.756158
3380.000000	8.761801
3378.000000	8.766572
3376.000000	8.768828
3374.000000	8.771282
3372.000000	8.774030
3370.000000	8.777249
3368.000000	8.781677
3366.000000	8.785812
3364.000000	8.789268
3362.000000	8.792763
3360.000000	8.796335
3358.000000	8.800323
3356.000000	8.804910
3354.000000	8.809064
3352.000000	8.811733
3350.000000	8.814815
3348.000000	8.818780
3346.000000	8.822917
3344.000000	8.827378
3342.000000	8.831647
3340.000000	8.835158
3338.000000	8.837407
3336.000000	8.840417
3334.000000	8.844593
3332.000000	8.848776
3330.000000	8.852880
3328.000000	8.855605
3326.000000	8.857587
3324.000000	8.859770
3322.000000	8.863070
3320.000000	8.866161
3318.000000	8.868547
3316.000000	8.872242
3314.000000	8.875888
3312.000000	8.877172
3310.000000	8.878424
3308.000000	8.879889
3306.000000	8.881103
3304.000000	8.884736
3302.000000	8.890359
3300.000000	8.895084
3298.000000	8.897478
3296.000000	8.899050
3294.000000	8.901880
3292.000000	8.905936
3290.000000	8.909108
3288.000000	8.910395
3286.000000	8.911956
3284.000000	8.915144
3282.000000	8.919143
3280.000000	8.922175
3278.000000	8.924529
3276.000000	8.927534
3274.000000	8.931765
3272.000000	8.934778
3270.000000	8.937790
3268.000000	8.941553
3266.000000	8.944204
3264.000000	8.946561
3262.000000	8.950195
3260.000000	8.955494
3258.000000	8.959140
3256.000000	8.961044
3254.000000	8.963644
3252.000000	8.968182
3250.000000	8.973221
3248.000000	8.978061
3246.000000	8.981854
3244.000000	8.983887
3242.000000	8.988692
3240.000000	8.995498
3238.000000	8.999882
3236.000000	9.005091
3234.000000	9.011161
3232.000000	9.016215
3230.000000	9.021010
3228.000000	9.025847
3226.000000	9.029784
3224.000000	9.033069
3222.000000	9.035816
3220.000000	9.039224
3218.000000	9.044704
3216.000000	9.048416
3214.000000	9.052270
3212.000000	9.058223
3210.000000	9.063182
3208.000000	9.070048
3206.000000	9.077544
3204.000000	9.083786
3202.000000	9.091226
3200.000000	9.098265
3198.000000	9.104250
3196.000000	9.111305
3194.000000	9.118713
3192.000000	9.125191
3190.000000	9.130789
3188.000000	9.135854
3186.000000	9.141475
3184.000000	9.149230
3182.000000	9.157494
3180.000000	9.164296
3178.000000	9.172628
3176.000000	9.180591
3174.000000	9.186448
3172.000000	9.192144
3170.000000	9.199911
3168.000000	9.208169
3166.000000	9.215158
3164.000000	9.222069
3162.000000	9.229322
3160.000000	9.237044
3158.000000	9.245016
3156.000000	9.252476
3154.000000	9.258740
3152.000000	9.266229
3150.000000	9.275688
3148.000000	9.284214
3146.000000	9.291089
3144.000000	9.297646
3142.000000	9.305445
3140.000000	9.312174
3138.000000	9.318716
3136.000000	9.325696
3134.000000	9.331661
3132.000000	9.338525
3130.000000	9.346172
3128.000000	9.352869
3126.000000	9.358184
3124.000000	9.363650
3122.000000	9.368697
3120.000000	9.374249
3118.000000	9.377948
3116.000000	9.381305
3114.000000	9.387751
3112.000000	9.394086
3110.000000	9.399452
3108.000000	9.403161
3106.000000	9.407561
3104.000000	9.413554
3102.000000	9.420204
3100.000000	9.427815
3098.000000	9.434026
3096.000000	9.439750
3094.000000	9.444939
3092.000000	9.449958
3090.000000	9.456148
3088.000000	9.462716
3086.000000	9.467442
3084.000000	9.470969
3082.000000	9.475669
3080.000000	9.480429
3078.000000	9.484735
3076.000000	9.489098
3074.000000	9.492074
3072.000000	9.492447
3070.000000	9.491876
3068.000000	9.492206
3066.000000	9.493920
3064.000000	9.497716
3062.000000	9.502569
3060.000000	9.508061
3058.000000	9.514355
3056.000000	9.520372
3054.000000	9.526810
3052.000000	9.532471
3050.000000	9.536873
3048.000000	9.542506
3046.000000	9.547946
3044.000000	9.552162
3042.000000	9.556027
3040.000000	9.558187
3038.000000	9.559706
3036.000000	9.560579
3034.000000	9.559411
3032.000000	9.558299
3030.000000	9.554953
3028.000000	9.547490
3026.000000	9.536175
3024.000000	9.521709
3022.000000	9.509339
3020.000000	9.503941
3018.000000	9.509169
3016.000000	9.526235
3014.000000	9.551465
3012.000000	9.582060
3010.000000	9.611082
3008.000000	9.634347
3006.000000	9.651357
3004.000000	9.661709
3002.000000	9.669854
3000.000000	9.677442
2998.000000	9.682029
2996.000000	9.685858
2994.000000	9.689661
2992.000000	9.690484
2990.000000	9.689555
2988.000000	9.687443
2986.000000	9.682551
2984.000000	9.676374
2982.000000	9.667238
2980.000000	9.654178
2978.000000	9.636847
2976.000000	9.611947
2974.000000	9.576211
2972.000000	9.529962
2970.000000	9.474112
2968.000000	9.415670
2966.000000	9.364670
2964.000000	9.328653
2962.000000	9.315127
2960.000000	9.323996
2958.000000	9.345240
2956.000000	9.371875
2954.000000	9.398464
2952.000000	9.416807
2950.000000	9.425218
2948.000000	9.422746
2946.000000	9.406953
2944.000000	9.375366
2942.000000	9.331078
2940.000000	9.281796
2938.000000	9.232144
2936.000000	9.185800
2934.000000	9.144055
2932.000000	9.105504
2930.000000	9.068285
2928.000000	9.036919
2926.000000	9.023298
2924.000000	9.040421
2922.000000	9.092712
2920.000000	9.169704
2918.000000	9.258905
2916.000000	9.350073
2914.000000	9.434487
2912.000000	9.507146
2910.000000	9.566950
2908.000000	9.612819
2906.000000	9.649584
2904.000000	9.684061
2902.000000	9.715757
2900.000000	9.745321
2898.000000	9.772324
2896.000000	9.797854
2894.000000	9.824256
2892.000000	9.851930
2890.000000	9.877443
2888.000000	9.896591
2886.000000	9.911216
2884.000000	9.924303
2882.000000	9.931946
2880.000000	9.933385
2878.000000	9.929741
2876.000000	9.921051
2874.000000	9.905507
2872.000000	9.881071
2870.000000	9.845209
2868.000000	9.796257
2866.000000	9.738937
2864.000000	9.684975
2862.000000	9.653328
2860.000000	9.653959
2858.000000	9.678585
2856.000000	9.714170
2854.000000	9.756364
2852.000000	9.806191
2850.000000	9.865537
2848.000000	9.933581
2846.000000	10.002268
2844.000000	10.061803
2842.000000	10.107572
2840.000000	10.143879
2838.000000	10.175018
2836.000000	10.201441
2834.000000	10.224078
2832.000000	10.243932
2830.000000	10.261409
2828.000000	10.276820
2826.000000	10.291224
2824.000000	10.305039
2822.000000	10.317037
2820.000000	10.328846
2818.000000	10.340813
2816.000000	10.348902
2814.000000	10.357083
2812.000000	10.367354
2810.000000	10.375046
2808.000000	10.383027
2806.000000	10.391625
2804.000000	10.397740
2802.000000	10.404443
2800.000000	10.413055
2798.000000	10.419637
2796.000000	10.426631
2794.000000	10.434756
2792.000000	10.442664
2790.000000	10.450571
2788.000000	10.459301
2786.000000	10.468176
2784.000000	10.478101
2782.000000	10.489020
2780.000000	10.498181
2778.000000	10.506697
2776.000000	10.515619
2774.000000	10.524163
2772.000000	10.531336
2770.000000	10.537687
2768.000000	10.544574
2766.000000	10.551529
2764.000000	10.557736
2762.000000	10.564009
2760.000000	10.571017
2758.000000	10.576778
2756.000000	10.582175
2754.000000	10.588737
2752.000000	10.594863
2750.000000	10.600454
2748.000000	10.604543
2746.000000	10.607735
2744.000000	10.612498
2742.000000	10.617330
2740.000000	10.621054
2738.000000	10.624757
2736.000000	10.629199
2734.000000	10.634666
2732.000000	10.638912
2730.000000	10.641871
2728.000000	10.644379
2726.000000	10.647694
2724.000000	10.650856
2722.000000	10.654266
2720.000000	10.658360
2718.000000	10.660929
2716.000000	10.664631
2714.000000	10.668842
2712.000000	10.672319
2710.000000	10.675242
2708.000000	10.677263
2706.000000	10.680001
2704.000000	10.682953
2702.000000	10.685069
2700.000000	10.688488
2698.000000	10.693523
2696.000000	10.698500
2694.000000	10.701180
2692.000000	10.703556
2690.000000	10.708036
2688.000000	10.711669
2686.000000	10.713753
2684.000000	10.716270
2682.000000	10.719092
2680.000000	10.722559
2678.000000	10.726685
2676.000000	10.728696
2674.000000	10.728383
2672.000000	10.730139
2670.000000	10.733333
2668.000000	10.735580
2666.000000	10.735980
2664.000000	10.737577
2662.000000	10.740508
2660.000000	10.741376
2658.000000	10.741907
2656.000000	10.742735
2654.000000	10.744303
2652.000000	10.748581
2650.000000	10.751602
2648.000000	10.752781
2646.000000	10.754426
2644.000000	10.755180
2642.000000	10.756368
2640.000000	10.758706
2638.000000	10.760838
2636.000000	10.762006
2634.000000	10.763467
2632.000000	10.764728
2630.000000	10.765754
2628.000000	10.766331
2626.000000	10.766803
2624.000000	10.767974
2622.000000	10.768296
2620.000000	10.768622
2618.000000	10.769238
2616.000000	10.769228
2614.000000	10.769006
2612.000000	10.768448
2610.000000	10.768717
2608.000000	10.769751
2606.000000	10.769356
2604.000000	10.768822
2602.000000	10.767409
2600.000000	10.765122
2598.000000	10.763929
2596.000000	10.764501
2594.000000	10.763708
2592.000000	10.762747
2590.000000	10.764818
2588.000000	10.768026
2586.000000	10.771130
2584.000000	10.774618
2582.000000	10.777343
2580.000000	10.781184
2578.000000	10.785999
2576.000000	10.789707
2574.000000	10.791488
2572.000000	10.794711
2570.000000	10.796931
2568.000000	10.797458
2566.000000	10.799006
2564.000000	10.800787
2562.000000	10.801480
2560.000000	10.801338
2558.000000	10.802083
2556.000000	10.803586
2554.000000	10.804276
2552.000000	10.804930
2550.000000	10.806220
2548.000000	10.805590
2546.000000	10.805267
2544.000000	10.807219
2542.000000	10.808458
2540.000000	10.809387
2538.000000	10.809117
2536.000000	10.808386
2534.000000	10.808267
2532.000000	10.808532
2530.000000	10.808520
2528.000000	10.808160
2526.000000	10.809640
2524.000000	10.812522
2522.000000	10.813266
2520.000000	10.812180
2518.000000	10.809396
2516.000000	10.807795
2514.000000	10.808663
2512.000000	10.811224
2510.000000	10.810518
2508.000000	10.807207
2506.000000	10.806351
2504.000000	10.806282
2502.000000	10.805683
2500.000000	10.806166
2498.000000	10.805379
2496.000000	10.803844
2494.000000	10.802886
2492.000000	10.801392
2490.000000	10.800274
2488.000000	10.798995
2486.000000	10.797716
2484.000000	10.797113
2482.000000	10.795300
2480.000000	10.795351
2478.000000	10.794853
2476.000000	10.790079
2474.000000	10.786220
2472.000000	10.784444
2470.000000	10.781101
2468.000000	10.776759
2466.000000	10.774582
2464.000000	10.773812
2462.000000	10.771404
2460.000000	10.767944
2458.000000	10.765302
2456.000000	10.764297
2454.000000	10.761897
2452.000000	10.758965
2450.000000	10.757485
2448.000000	10.757019
2446.000000	10.755307
2444.000000	10.754187
2442.000000	10.754571
2440.000000	10.755223
2438.000000	10.754843
2436.000000	10.753990
2434.000000	10.754364
2432.000000	10.755877
2430.000000	10.756433
2428.000000	10.756350
2426.000000	10.756650
2424.000000	10.757537
2422.000000	10.759638
2420.000000	10.763745
2418.000000	10.766840
2416.000000	10.769689
2414.000000	10.774455
2412.000000	10.778741
2410.000000	10.782688
2408.000000	10.786708
2406.000000	10.791320
2404.000000	10.795524
2402.000000	10.798985
2400.000000	10.802118
2398.000000	10.803873
2396.000000	10.805056
2394.000000	10.807238
2392.000000	10.810018
2390.000000	10.812360
2388.000000	10.816189
2386.000000	10.817087
2384.000000	10.814606
2382.000000	10.811139
2380.000000	10.806488
2378.000000	10.796419
2376.000000	10.782042
2374.000000	10.764946
2372.000000	10.742979
2370.000000	10.719289
2368.000000	10.698706
2366.000000	10.681050
2364.000000	10.668870
2362.000000	10.663734
2360.000000	10.666513
2358.000000	10.678728
2356.000000	10.700174
2354.000000	10.727894
2352.000000	10.756890
2350.000000	10.775189
2348.000000	10.767900
2346.000000	10.740456
2344.000000	10.708453
2342.000000	10.681786
2340.000000	10.670372
2338.000000	10.674212
2336.000000	10.683737
2334.000000	10.690957
2332.000000	10.696515
2330.000000	10.702885
2328.000000	10.711764
2326.000000	10.719825
2324.000000	10.726505
2322.000000	10.735144
2320.000000	10.744445
2318.000000	10.751829
2316.000000	10.758899
2314.000000	10.765001
2312.000000	10.769547
2310.000000	10.772630
2308.000000	10.774722
2306.000000	10.777239
2304.000000	10.778976
2302.000000	10.778450
2300.000000	10.777983
2298.000000	10.778631
2296.000000	10.779813
2294.000000	10.778716
2292.000000	10.776832
2290.000000	10.777206
2288.000000	10.777509
2286.000000	10.775293
2284.000000	10.773488
2282.000000	10.771212
2280.000000	10.768746
2278.000000	10.766244
2276.000000	10.764087
2274.000000	10.761899
2272.000000	10.759378
2270.000000	10.757645
2268.000000	10.755609
2266.000000	10.753322
2264.000000	10.752135
2262.000000	10.750510
2260.000000	10.748590
2258.000000	10.747543
2256.000000	10.746264
2254.000000	10.745310
2252.000000	10.745656
2250.000000	10.744893
2248.000000	10.743633
2246.000000	10.742718
2244.000000	10.742726
2242.000000	10.742578
2240.000000	10.742954
2238.000000	10.744284
2236.000000	10.744982
2234.000000	10.745381
2232.000000	10.746668
2230.000000	10.746260
2228.000000	10.745995
2226.000000	10.746252
2224.000000	10.746673
2222.000000	10.747529
2220.000000	10.748344
2218.000000	10.749290
2216.000000	10.752837
2214.000000	10.754573
2212.000000	10.752971
2210.000000	10.751576
2208.000000	10.751202
2206.000000	10.752096
2204.000000	10.754611
2202.000000	10.755733
2200.000000	10.756076
2198.000000	10.756492
2196.000000	10.757469
2194.000000	10.758782
2192.000000	10.760049
2190.000000	10.761044
2188.000000	10.762520
2186.000000	10.763884
2184.000000	10.764583
2182.000000	10.764204
2180.000000	10.765044
2178.000000	10.766272
2176.000000	10.767990
2174.000000	10.769506
2172.000000	10.767593
2170.000000	10.765711
2168.000000	10.768511
2166.000000	10.771921
2164.000000	10.775404
2162.000000	10.776752
2160.000000	10.777231
2158.000000	10.779186
2156.000000	10.780463
2154.000000	10.780583
2152.000000	10.782734
2150.000000	10.786048
2148.000000	10.788851
2146.000000	10.791143
2144.000000	10.794027
2142.000000	10.795965
2140.000000	10.796700
2138.000000	10.799073
2136.000000	10.801360
2134.000000	10.802485
2132.000000	10.803860
2130.000000	10.807025
2128.000000	10.810953
2126.000000	10.815166
2124.000000	10.818016
2122.000000	10.819270
2120.000000	10.820812
2118.000000	10.822628
2116.000000	10.826505
2114.000000	10.832453
2112.000000	10.836642
2110.000000	10.840165
2108.000000	10.845276
2106.000000	10.850346
2104.000000	10.854207
2102.000000	10.857873
2100.000000	10.862780
2098.000000	10.867526
2096.000000	10.872670
2094.000000	10.877075
2092.000000	10.879607
2090.000000	10.883776
2088.000000	10.888677
2086.000000	10.893220
2084.000000	10.898708
2082.000000	10.902131
2080.000000	10.905957
2078.000000	10.911897
2076.000000	10.918759
2074.000000	10.923182
2072.000000	10.926258
2070.000000	10.930394
2068.000000	10.935994
2066.000000	10.940688
2064.000000	10.945990
2062.000000	10.952355
2060.000000	10.956980
2058.000000	10.961888
2056.000000	10.968144
2054.000000	10.974314
2052.000000	10.979866
2050.000000	10.984121
2048.000000	10.988703
2046.000000	10.992465
2044.000000	10.996853
2042.000000	11.002128
2040.000000	11.007708
2038.000000	11.013358
2036.000000	11.017883
2034.000000	11.021153
2032.000000	11.024485
2030.000000	11.025105
2028.000000	11.027568
2026.000000	11.032916
2024.000000	11.039128
2022.000000	11.043324
2020.000000	11.045615
2018.000000	11.047420
2016.000000	11.052244
2014.000000	11.059225
2012.000000	11.064041
2010.000000	11.067357
2008.000000	11.072114
2006.000000	11.076528
2004.000000	11.079599
2002.000000	11.082353
2000.000000	11.083998
1998.000000	11.087030
1996.000000	11.089628
1994.000000	11.087306
1992.000000	11.086369
1990.000000	11.090320
1988.000000	11.095261
1986.000000	11.098432
1984.000000	11.098349
1982.000000	11.098476
1980.000000	11.099231
1978.000000	11.098580
1976.000000	11.097113
1974.000000	11.095553
1972.000000	11.095639
1970.000000	11.094786
1968.000000	11.089467
1966.000000	11.087428
1964.000000	11.087062
1962.000000	11.080461
1960.000000	11.067600
1958.000000	11.066426
1956.000000	11.075658
1954.000000	11.078894
1952.000000	11.077144
1950.000000	11.074090
1948.000000	11.071659
1946.000000	11.067196
1944.000000	11.059500
1942.000000	11.057036
1940.000000	11.061571
1938.000000	11.060571
1936.000000	11.056734
1934.000000	11.053031
1932.000000	11.050926
1930.000000	11.047840
1928.000000	11.043883
1926.000000	11.036971
1924.000000	11.028326
1922.000000	11.023069
1920.000000	11.012565
1918.000000	11.002503
1916.000000	11.008926
1914.000000	11.009091
1912.000000	10.999441
1910.000000	10.989818
1908.000000	10.984748
1906.000000	10.979374
1904.000000	10.973568
1902.000000	10.966993
1900.000000	10.960653
1898.000000	10.952224
1896.000000	10.944619
1894.000000	10.940204
1892.000000	10.933753
1890.000000	10.921683
1888.000000	10.923051
1886.000000	10.928423
1884.000000	10.927439
1882.000000	10.922203
1880.000000	10.917773
1878.000000	10.914495
1876.000000	10.910717
1874.000000	10.903560
1872.000000	10.887815
1870.000000	10.864773
1868.000000	10.863888
1866.000000	10.875483
1864.000000	10.876854
1862.000000	10.871881
1860.000000	10.868464
1858.000000	10.864877
1856.000000	10.860624
1854.000000	10.853021
1852.000000	10.846193
1850.000000	10.837438
1848.000000	10.823118
1846.000000	10.787208
1844.000000	10.767649
1842.000000	10.792094
1840.000000	10.803221
1838.000000	10.793603
1836.000000	10.785751
1834.000000	10.776676
1832.000000	10.752897
1830.000000	10.730548
1828.000000	10.729465
1826.000000	10.720844
1824.000000	10.718100
1822.000000	10.719535
1820.000000	10.711559
1818.000000	10.699727
1816.000000	10.689201
1814.000000	10.675791
1812.000000	10.657862
1810.000000	10.645034
1808.000000	10.638084
1806.000000	10.626261
1804.000000	10.605704
1802.000000	10.579383
1800.000000	10.564426
1798.000000	10.557970
1796.000000	10.539915
1794.000000	10.494980
1792.000000	10.471534
1790.000000	10.488005
1788.000000	10.489047
1786.000000	10.464935
1784.000000	10.447765
1782.000000	10.433786
1780.000000	10.420270
1778.000000	10.408860
1776.000000	10.379196
1774.000000	10.319089
1772.000000	10.291437
1770.000000	10.308298
1768.000000	10.313521
1766.000000	10.319970
1764.000000	10.298445
1762.000000	10.266762
1760.000000	10.261524
1758.000000	10.245450
1756.000000	10.227776
1754.000000	10.201125
1752.000000	10.146082
1750.000000	10.124054
1748.000000	10.126182
1746.000000	10.120042
1744.000000	10.099854
1742.000000	10.066078
1740.000000	10.035979
1738.000000	10.025110
1736.000000	9.956354
1734.000000	9.900292
1732.000000	9.955805
1730.000000	9.996596
1728.000000	10.001037
1726.000000	9.994987
1724.000000	9.984024
1722.000000	9.966076
1720.000000	9.901667
1718.000000	9.825581
1716.000000	9.844163
1714.000000	9.893099
1712.000000	9.911280
1710.000000	9.899457
1708.000000	9.871794
1706.000000	9.841399
1704.000000	9.822261
1702.000000	9.741460
1700.000000	9.693628
1698.000000	9.710217
1696.000000	9.701548
1694.000000	9.770180
1692.000000	9.817453
1690.000000	9.807077
1688.000000	9.770934
1686.000000	9.669868
1684.000000	9.644556
1682.000000	9.729433
1680.000000	9.766525
1678.000000	9.747975
1676.000000	9.703679
1674.000000	9.703051
1672.000000	9.698798
1670.000000	9.668827
1668.000000	9.682197
1666.000000	9.697532
1664.000000	9.670866
1662.000000	9.660109
1660.000000	9.670710
1658.000000	9.656166
1656.000000	9.563987
1654.000000	9.412245
1652.000000	9.436957
1650.000000	9.546503
1648.000000	9.523809
1646.000000	9.501560
1644.000000	9.542515
1642.000000	9.559013
1640.000000	9.536369
1638.000000	9.473002
1636.000000	9.407636
1634.000000	9.436110
1632.000000	9.470471
1630.000000	9.445814
1628.000000	9.409764
1626.000000	9.372273
1624.000000	9.317133
1622.000000	9.280571
1620.000000	9.238216
1618.000000	9.148006
1616.000000	9.106753
1614.000000	9.107158
1612.000000	9.052481
1610.000000	8.989580
1608.000000	8.959765
1606.000000	8.964213
1604.000000	8.983862
1602.000000	9.008844
1600.000000	9.032241
1598.000000	9.051774
1596.000000	9.066076
1594.000000	9.078037
1592.000000	9.084671
1590.000000	9.084368
1588.000000	9.078040
1586.000000	9.069446
1584.000000	9.062065
1582.000000	9.057603
1580.000000	9.044434
1578.000000	8.981515
1576.000000	8.943319
1574.000000	8.997520
1572.000000	9.005127
1570.000000	8.970695
1568.000000	8.970739
1566.000000	8.965950
1564.000000	8.933644
1562.000000	8.838391
1560.000000	8.702408
1558.000000	8.714088
1556.000000	8.806880
1554.000000	8.857988
1552.000000	8.901432
1550.000000	8.928612
1548.000000	8.945674
1546.000000	8.939409
1544.000000	8.916859
1542.000000	8.870318
1540.000000	8.852492
1538.000000	8.949055
1536.000000	9.030901
1534.000000	9.033365
1532.000000	9.059613
1530.000000	9.079942
1528.000000	9.065021
1526.000000	9.046238
1524.000000	9.018564
1522.000000	8.966973
1520.000000	8.974243
1518.000000	8.990851
1516.000000	8.980924
1514.000000	8.971344
1512.000000	8.950675
1510.000000	8.902478
1508.000000	8.794207
1506.000000	8.737381
1504.000000	8.746163
1502.000000	8.641584
1500.000000	8.381706
1498.000000	8.048250
1496.000000	7.805597
1494.000000	7.776655
1492.000000	7.897361
1490.000000	8.082656
1488.000000	8.277385
1486.000000	8.432689
1484.000000	8.533296
1482.000000	8.583026
1480.000000	8.604899
1478.000000	8.597830
1476.000000	8.568681
1474.000000	8.521895
1472.000000	8.504783
1470.000000	8.520894
1468.000000	8.500153
1466.000000	8.442615
1464.000000	8.404727
1462.000000	8.373404
1460.000000	8.276281
1458.000000	8.119805
1456.000000	8.022692
1454.000000	7.979964
1452.000000	7.930109
1450.000000	7.945952
1448.000000	8.035569
1446.000000	8.131659
1444.000000	8.176462
1442.000000	8.186207
1440.000000	8.177576
1438.000000	8.145120
1436.000000	8.147466
1434.000000	8.189055
1432.000000	8.194750
1430.000000	8.189234
1428.000000	8.193108
1426.000000	8.192885
1424.000000	8.183427
1422.000000	8.161290
1420.000000	8.115305
1418.000000	8.112075
1416.000000	8.124903
1414.000000	8.108851
1412.000000	8.071862
1410.000000	8.018913
1408.000000	7.943437
1406.000000	7.862908
1404.000000	7.819933
1402.000000	7.824155
1400.000000	7.850807
1398.000000	7.897609
1396.000000	7.936363
1394.000000	7.970098
1392.000000	8.003194
1390.000000	8.003261
1388.000000	7.971892
1386.000000	7.944489
1384.000000	7.935808
1382.000000	7.948518
1380.000000	7.959254
1378.000000	7.954445
1376.000000	7.940575
1374.000000	7.930445
1372.000000	7.928027
1370.000000	7.919483
1368.000000	7.905012
1366.000000	7.890759
1364.000000	7.870703
1362.000000	7.853191
1360.000000	7.843360
1358.000000	7.830478
1356.000000	7.811287
1354.000000	7.791338
1352.000000	7.771845
1350.000000	7.752048
1348.000000	7.730496
1346.000000	7.706036
1344.000000	7.681135
1342.000000	7.656017
1340.000000	7.631667
1338.000000	7.617625
1336.000000	7.612674
1334.000000	7.605888
1332.000000	7.591910
1330.000000	7.574370
1328.000000	7.551605
1326.000000	7.525406
1324.000000	7.499448
1322.000000	7.470548
1320.000000	7.439465
1318.000000	7.411171
1316.000000	7.383058
1314.000000	7.352231
1312.000000	7.320946
1310.000000	7.290522
1308.000000	7.255819
1306.000000	7.220418
1304.000000	7.187638
1302.000000	7.155657
1300.000000	7.122115
1298.000000	7.087679
1296.000000	7.050159
1294.000000	7.012642
1292.000000	6.975219
1290.000000	6.936412
1288.000000	6.894614
1286.000000	6.853584
1284.000000	6.812000
1282.000000	6.767409
1280.000000	6.721072
1278.000000	6.672023
1276.000000	6.615476
1274.000000	6.550377
1272.000000	6.472488
1270.000000	6.374871
1268.000000	6.250834
1266.000000	6.101715
1264.000000	5.946028
1262.000000	5.822407
1260.000000	5.766069
1258.000000	5.776704
1256.000000	5.819547
1254.000000	5.855127
1252.000000	5.863297
1250.000000	5.844335
1248.000000	5.806091
1246.000000	5.759403
1244.000000	5.710212
1242.000000	5.657576
1240.000000	5.604845
1238.000000	5.554929
1236.000000	5.506239
1234.000000	5.458837
1232.000000	5.411129
1230.000000	5.364790
1228.000000	5.318930
1226.000000	5.272092
1224.000000	5.225140
1222.000000	5.177578
1220.000000	5.126256
1218.000000	5.072420
1216.000000	5.018318
1214.000000	4.965436
1212.000000	4.914393
1210.000000	4.866465
1208.000000	4.823957
1206.000000	4.783567
1204.000000	4.742870
1202.000000	4.702395
1200.000000	4.660273
1198.000000	4.617952
1196.000000	4.576820
1194.000000	4.534072
1192.000000	4.490174
1190.000000	4.446595
1188.000000	4.398811
1186.000000	4.347951
1184.000000	4.286553
1182.000000	4.210247
1180.000000	4.152553
1178.000000	4.128446
1176.000000	4.104101
1174.000000	4.065861
1172.000000	4.020143
1170.000000	3.972024
1168.000000	3.922973
1166.000000	3.872800
1164.000000	3.823388
1162.000000	3.774042
1160.000000	3.726145
1158.000000	3.682828
1156.000000	3.640658
1154.000000	3.597508
1152.000000	3.552585
1150.000000	3.507608
1148.000000	3.462539
1146.000000	3.416627
1144.000000	3.371657
1142.000000	3.333255
1140.000000	3.301812
1138.000000	3.268686
1136.000000	3.231045
1134.000000	3.190848
1132.000000	3.148555
1130.000000	3.104812
1128.000000	3.059997
1126.000000	3.016717
1124.000000	2.972862
1122.000000	2.927422
1120.000000	2.881730
1118.000000	2.833755
1116.000000	2.782438
1114.000000	2.733026
1112.000000	2.684268
1110.000000	2.635527
1108.000000	2.588072
1106.000000	2.541253
1104.000000	2.496234
1102.000000	2.453635
1100.000000	2.410081
1098.000000	2.367597
1096.000000	2.327568
1094.000000	2.288816
1092.000000	2.251345
1090.000000	2.217200
1088.000000	2.183319
1086.000000	2.148518
1084.000000	2.114508
1082.000000	2.080176
1080.000000	2.048511
1078.000000	2.019838
1076.000000	1.993325
1074.000000	1.970688
1072.000000	1.949325
1070.000000	1.928645
1068.000000	1.908350
1066.000000	1.886309
1064.000000	1.864522
1062.000000	1.844091
1060.000000	1.820114
1058.000000	1.791114
1056.000000	1.751690
1054.000000	1.700972
1052.000000	1.652128
1050.000000	1.623574
1048.000000	1.622147
1046.000000	1.631674
1044.000000	1.632894
1042.000000	1.622691
1040.000000	1.604111
1038.000000	1.583002
1036.000000	1.560684
1034.000000	1.537498
1032.000000	1.514035
1030.000000	1.487524
1028.000000	1.460212
1026.000000	1.434192
1024.000000	1.409966
1022.000000	1.384417
1020.000000	1.357048
1018.000000	1.332907
1016.000000	1.311024
1014.000000	1.291581
1012.000000	1.274478
1010.000000	1.259055
1008.000000	1.243843
1006.000000	1.226052
1004.000000	1.206416
1002.000000	1.185806
1000.000000	1.163350
