PE IR       SUBTECH     SPECTRUM    ASCII       PEDS        4.00        
   -1
TE109A_052_120K_SB.ASC
20/04/21
16:46:27.00
20/04/21
16:46:27.00
Administrator
TE109A, Tuesday, April 21 2020, 052.
1000.000000
#HDR
-1
-1
#GR
cm-1
EGY
1.0
0.0
6000.000000
-2.000000
2501
8
9.557532
0.985853
#DATA
6000.000000	1.693858
5998.000000	1.697428
5996.000000	1.699341
5994.000000	1.703148
5992.000000	1.708873
5990.000000	1.714019
5988.000000	1.716785
5986.000000	1.718908
5984.000000	1.722692
5982.000000	1.726681
5980.000000	1.729442
5978.000000	1.731186
5976.000000	1.733891
5974.000000	1.737229
5972.000000	1.741343
5970.000000	1.745687
5968.000000	1.750005
5966.000000	1.753022
5964.000000	1.756471
5962.000000	1.760023
5960.000000	1.763131
5958.000000	1.767184
5956.000000	1.770393
5954.000000	1.773457
5952.000000	1.776181
5950.000000	1.780044
5948.000000	1.785447
5946.000000	1.790449
5944.000000	1.794434
5942.000000	1.798540
5940.000000	1.802875
5938.000000	1.806303
5936.000000	1.807834
5934.000000	1.809077
5932.000000	1.811892
5930.000000	1.815765
5928.000000	1.819660
5926.000000	1.821868
5924.000000	1.824833
5922.000000	1.829412
5920.000000	1.834036
5918.000000	1.838267
5916.000000	1.841143
5914.000000	1.844815
5912.000000	1.849589
5910.000000	1.854318
5908.000000	1.859284
5906.000000	1.862789
5904.000000	1.866780
5902.000000	1.870533
5900.000000	1.873410
5898.000000	1.875412
5896.000000	1.877769
5894.000000	1.881801
5892.000000	1.886831
5890.000000	1.890881
5888.000000	1.893992
5886.000000	1.897535
5884.000000	1.901229
5882.000000	1.905600
5880.000000	1.909883
5878.000000	1.914717
5876.000000	1.919397
5874.000000	1.922843
5872.000000	1.926087
5870.000000	1.929297
5868.000000	1.933461
5866.000000	1.939044
5864.000000	1.944049
5862.000000	1.947225
5860.000000	1.949266
5858.000000	1.951655
5856.000000	1.956091
5854.000000	1.961007
5852.000000	1.964952
5850.000000	1.969236
5848.000000	1.973720
5846.000000	1.978555
5844.000000	1.982847
5842.000000	1.986555
5840.000000	1.990376
5838.000000	1.993576
5836.000000	1.997783
5834.000000	2.003247
5832.000000	2.008231
5830.000000	2.012751
5828.000000	2.017344
5826.000000	2.021891
5824.000000	2.026254
5822.000000	2.028944
5820.000000	2.031492
5818.000000	2.035144
5816.000000	2.039945
5814.000000	2.044939
5812.000000	2.048621
5810.000000	2.051870
5808.000000	2.056153
5806.000000	2.061772
5804.000000	2.067066
5802.000000	2.070833
5800.000000	2.075256
5798.000000	2.079457
5796.000000	2.083833
5794.000000	2.086734
5792.000000	2.088895
5790.000000	2.090937
5788.000000	2.094171
5786.000000	2.098953
5784.000000	2.104622
5782.000000	2.110408
5780.000000	2.115304
5778.000000	2.119462
5776.000000	2.122709
5774.000000	2.126064
5772.000000	2.130853
5770.000000	2.137290
5768.000000	2.141925
5766.000000	2.144888
5764.000000	2.148094
5762.000000	2.152812
5760.000000	2.157683
5758.000000	2.161486
5756.000000	2.165698
5754.000000	2.170766
5752.000000	2.175489
5750.000000	2.179607
5748.000000	2.183521
5746.000000	2.187903
5744.000000	2.192442
5742.000000	2.197884
5740.000000	2.202777
5738.000000	2.206511
5736.000000	2.210259
5734.000000	2.214944
5732.000000	2.219591
5730.000000	2.223756
5728.000000	2.227014
5726.000000	2.230626
5724.000000	2.233372
5722.000000	2.236943
5720.000000	2.242550
5718.000000	2.249497
5716.000000	2.254562
5714.000000	2.256863
5712.000000	2.259490
5710.000000	2.263879
5708.000000	2.269999
5706.000000	2.274307
5704.000000	2.277204
5702.000000	2.281587
5700.000000	2.288540
5698.000000	2.293811
5696.000000	2.297799
5694.000000	2.301313
5692.000000	2.306431
5690.000000	2.311733
5688.000000	2.315706
5686.000000	2.319478
5684.000000	2.323187
5682.000000	2.327154
5680.000000	2.332445
5678.000000	2.338479
5676.000000	2.344023
5674.000000	2.349558
5672.000000	2.353405
5670.000000	2.356550
5668.000000	2.360313
5666.000000	2.365467
5664.000000	2.371252
5662.000000	2.376539
5660.000000	2.381052
5658.000000	2.386247
5656.000000	2.391795
5654.000000	2.397188
5652.000000	2.401976
5650.000000	2.405722
5648.000000	2.409675
5646.000000	2.414318
5644.000000	2.418067
5642.000000	2.422141
5640.000000	2.426068
5638.000000	2.431402
5636.000000	2.436337
5634.000000	2.440651
5632.000000	2.445368
5630.000000	2.449460
5628.000000	2.453879
5626.000000	2.457897
5624.000000	2.462620
5622.000000	2.467265
5620.000000	2.472164
5618.000000	2.477846
5616.000000	2.484102
5614.000000	2.489101
5612.000000	2.492962
5610.000000	2.495845
5608.000000	2.498853
5606.000000	2.503691
5604.000000	2.510627
5602.000000	2.517344
5600.000000	2.523131
5598.000000	2.528280
5596.000000	2.533500
5594.000000	2.537289
5592.000000	2.540800
5590.000000	2.545339
5588.000000	2.549393
5586.000000	2.553214
5584.000000	2.559013
5582.000000	2.566078
5580.000000	2.572779
5578.000000	2.578170
5576.000000	2.583168
5574.000000	2.586374
5572.000000	2.587752
5570.000000	2.590813
5568.000000	2.596345
5566.000000	2.603508
5564.000000	2.609467
5562.000000	2.614741
5560.000000	2.619822
5558.000000	2.624007
5556.000000	2.628262
5554.000000	2.633474
5552.000000	2.640140
5550.000000	2.644764
5548.000000	2.647950
5546.000000	2.652556
5544.000000	2.658467
5542.000000	2.665326
5540.000000	2.670702
5538.000000	2.675316
5536.000000	2.679140
5534.000000	2.683166
5532.000000	2.688435
5530.000000	2.693031
5528.000000	2.697571
5526.000000	2.702373
5524.000000	2.707956
5522.000000	2.713423
5520.000000	2.718326
5518.000000	2.723060
5516.000000	2.727450
5514.000000	2.731794
5512.000000	2.735229
5510.000000	2.739106
5508.000000	2.744450
5506.000000	2.749990
5504.000000	2.754943
5502.000000	2.759989
5500.000000	2.765988
5498.000000	2.772151
5496.000000	2.776026
5494.000000	2.778906
5492.000000	2.782376
5490.000000	2.787940
5488.000000	2.794675
5486.000000	2.800981
5484.000000	2.808226
5482.000000	2.814929
5480.000000	2.819188
5478.000000	2.821071
5476.000000	2.823143
5474.000000	2.828226
5472.000000	2.834671
5470.000000	2.840734
5468.000000	2.845759
5466.000000	2.849849
5464.000000	2.855038
5462.000000	2.861158
5460.000000	2.867594
5458.000000	2.874295
5456.000000	2.881336
5454.000000	2.886605
5452.000000	2.889491
5450.000000	2.891505
5448.000000	2.894620
5446.000000	2.898957
5444.000000	2.903694
5442.000000	2.909322
5440.000000	2.915786
5438.000000	2.922052
5436.000000	2.927828
5434.000000	2.931403
5432.000000	2.935198
5430.000000	2.940610
5428.000000	2.948575
5426.000000	2.954922
5424.000000	2.959143
5422.000000	2.964032
5420.000000	2.970091
5418.000000	2.973739
5416.000000	2.975032
5414.000000	2.977601
5412.000000	2.984177
5410.000000	2.991616
5408.000000	2.998460
5406.000000	3.004763
5404.000000	3.010380
5402.000000	3.015120
5400.000000	3.018620
5398.000000	3.022153
5396.000000	3.025762
5394.000000	3.031257
5392.000000	3.038363
5390.000000	3.044515
5388.000000	3.048980
5386.000000	3.053851
5384.000000	3.060424
5382.000000	3.066686
5380.000000	3.070734
5378.000000	3.073382
5376.000000	3.078186
5374.000000	3.085304
5372.000000	3.092756
5370.000000	3.098483
5368.000000	3.104588
5366.000000	3.110954
5364.000000	3.115550
5362.000000	3.118769
5360.000000	3.122541
5358.000000	3.127214
5356.000000	3.131591
5354.000000	3.135873
5352.000000	3.140989
5350.000000	3.146663
5348.000000	3.151128
5346.000000	3.155288
5344.000000	3.159973
5342.000000	3.165320
5340.000000	3.169709
5338.000000	3.174852
5336.000000	3.180886
5334.000000	3.187264
5332.000000	3.192451
5330.000000	3.197221
5328.000000	3.202083
5326.000000	3.206106
5324.000000	3.209181
5322.000000	3.213653
5320.000000	3.220661
5318.000000	3.227573
5316.000000	3.232529
5314.000000	3.237423
5312.000000	3.242624
5310.000000	3.247131
5308.000000	3.251315
5306.000000	3.256794
5304.000000	3.261629
5302.000000	3.265652
5300.000000	3.269791
5298.000000	3.274289
5296.000000	3.278440
5294.000000	3.282307
5292.000000	3.287068
5290.000000	3.291248
5288.000000	3.294950
5286.000000	3.299075
5284.000000	3.302941
5282.000000	3.308098
5280.000000	3.313691
5278.000000	3.319197
5276.000000	3.324417
5274.000000	3.329395
5272.000000	3.334445
5270.000000	3.337908
5268.000000	3.341901
5266.000000	3.346172
5264.000000	3.350841
5262.000000	3.355168
5260.000000	3.358703
5258.000000	3.361632
5256.000000	3.366261
5254.000000	3.373761
5252.000000	3.379952
5250.000000	3.382644
5248.000000	3.384019
5246.000000	3.387941
5244.000000	3.393044
5242.000000	3.398026
5240.000000	3.401883
5238.000000	3.405123
5236.000000	3.408143
5234.000000	3.410883
5232.000000	3.414451
5230.000000	3.418739
5228.000000	3.424113
5226.000000	3.427877
5224.000000	3.430715
5222.000000	3.432887
5220.000000	3.434912
5218.000000	3.438988
5216.000000	3.445203
5214.000000	3.451639
5212.000000	3.454591
5210.000000	3.456244
5208.000000	3.459163
5206.000000	3.464205
5204.000000	3.470207
5202.000000	3.474139
5200.000000	3.476682
5198.000000	3.479360
5196.000000	3.483441
5194.000000	3.487559
5192.000000	3.490162
5190.000000	3.491709
5188.000000	3.493615
5186.000000	3.497653
5184.000000	3.502468
5182.000000	3.506699
5180.000000	3.510215
5178.000000	3.514090
5176.000000	3.518134
5174.000000	3.522105
5172.000000	3.525780
5170.000000	3.528307
5168.000000	3.531584
5166.000000	3.536364
5164.000000	3.540170
5162.000000	3.543122
5160.000000	3.546629
5158.000000	3.551846
5156.000000	3.557602
5154.000000	3.562224
5152.000000	3.565115
5150.000000	3.567004
5148.000000	3.570543
5146.000000	3.575204
5144.000000	3.579143
5142.000000	3.582401
5140.000000	3.585424
5138.000000	3.589414
5136.000000	3.594718
5134.000000	3.599130
5132.000000	3.602698
5130.000000	3.606344
5128.000000	3.610824
5126.000000	3.615501
5124.000000	3.620264
5122.000000	3.624623
5120.000000	3.628508
5118.000000	3.632262
5116.000000	3.635967
5114.000000	3.639292
5112.000000	3.643774
5110.000000	3.650119
5108.000000	3.655905
5106.000000	3.660090
5104.000000	3.662923
5102.000000	3.666759
5100.000000	3.672142
5098.000000	3.678110
5096.000000	3.684400
5094.000000	3.689744
5092.000000	3.694414
5090.000000	3.697915
5088.000000	3.702353
5086.000000	3.707709
5084.000000	3.712999
5082.000000	3.719226
5080.000000	3.726009
5078.000000	3.732327
5076.000000	3.736893
5074.000000	3.741672
5072.000000	3.746398
5070.000000	3.750317
5068.000000	3.754413
5066.000000	3.759724
5064.000000	3.766440
5062.000000	3.773039
5060.000000	3.779811
5058.000000	3.786441
5056.000000	3.792023
5054.000000	3.796598
5052.000000	3.800949
5050.000000	3.806125
5048.000000	3.811090
5046.000000	3.815104
5044.000000	3.819349
5042.000000	3.824579
5040.000000	3.830786
5038.000000	3.836214
5036.000000	3.841138
5034.000000	3.846864
5032.000000	3.852418
5030.000000	3.857257
5028.000000	3.862245
5026.000000	3.868684
5024.000000	3.875371
5022.000000	3.880452
5020.000000	3.885300
5018.000000	3.890882
5016.000000	3.897496
5014.000000	3.903711
5012.000000	3.909205
5010.000000	3.914734
5008.000000	3.920517
5006.000000	3.925644
5004.000000	3.930301
5002.000000	3.936014
5000.000000	3.943417
4998.000000	3.950933
4996.000000	3.957062
4994.000000	3.962199
4992.000000	3.967220
4990.000000	3.972519
4988.000000	3.978777
4986.000000	3.985962
4984.000000	3.991808
4982.000000	3.996572
4980.000000	4.002643
4978.000000	4.010060
4976.000000	4.016741
4974.000000	4.023120
4972.000000	4.029114
4970.000000	4.033753
4968.000000	4.039348
4966.000000	4.046547
4964.000000	4.054338
4962.000000	4.062080
4960.000000	4.069178
4958.000000	4.074769
4956.000000	4.079108
4954.000000	4.083877
4952.000000	4.089206
4950.000000	4.094599
4948.000000	4.100268
4946.000000	4.107215
4944.000000	4.115255
4942.000000	4.121591
4940.000000	4.126830
4938.000000	4.133105
4936.000000	4.139987
4934.000000	4.146196
4932.000000	4.152920
4930.000000	4.160130
4928.000000	4.165967
4926.000000	4.170538
4924.000000	4.175501
4922.000000	4.180542
4920.000000	4.185977
4918.000000	4.192675
4916.000000	4.200788
4914.000000	4.207876
4912.000000	4.213429
4910.000000	4.218482
4908.000000	4.225350
4906.000000	4.233828
4904.000000	4.241055
4902.000000	4.247031
4900.000000	4.253780
4898.000000	4.262052
4896.000000	4.269480
4894.000000	4.275783
4892.000000	4.281592
4890.000000	4.289024
4888.000000	4.297376
4886.000000	4.304263
4884.000000	4.311186
4882.000000	4.319817
4880.000000	4.328101
4878.000000	4.334034
4876.000000	4.339436
4874.000000	4.345609
4872.000000	4.351785
4870.000000	4.357145
4868.000000	4.362546
4866.000000	4.369931
4864.000000	4.378873
4862.000000	4.385574
4860.000000	4.390531
4858.000000	4.397384
4856.000000	4.406324
4854.000000	4.414820
4852.000000	4.423047
4850.000000	4.431510
4848.000000	4.437793
4846.000000	4.442418
4844.000000	4.448028
4842.000000	4.455535
4840.000000	4.461879
4838.000000	4.467930
4836.000000	4.474626
4834.000000	4.481839
4832.000000	4.488788
4830.000000	4.495843
4828.000000	4.503044
4826.000000	4.511146
4824.000000	4.520994
4822.000000	4.530002
4820.000000	4.536558
4818.000000	4.542197
4816.000000	4.548469
4814.000000	4.554860
4812.000000	4.561246
4810.000000	4.569159
4808.000000	4.578351
4806.000000	4.586598
4804.000000	4.594566
4802.000000	4.603272
4800.000000	4.611213
4798.000000	4.617572
4796.000000	4.623553
4794.000000	4.630805
4792.000000	4.639891
4790.000000	4.650009
4788.000000	4.658477
4786.000000	4.664335
4784.000000	4.669949
4782.000000	4.677432
4780.000000	4.685768
4778.000000	4.692991
4776.000000	4.701082
4774.000000	4.710460
4772.000000	4.718459
4770.000000	4.725148
4768.000000	4.733092
4766.000000	4.741327
4764.000000	4.747927
4762.000000	4.754619
4760.000000	4.762356
4758.000000	4.770614
4756.000000	4.777890
4754.000000	4.783897
4752.000000	4.789589
4750.000000	4.796888
4748.000000	4.805967
4746.000000	4.814211
4744.000000	4.820490
4742.000000	4.826045
4740.000000	4.833943
4738.000000	4.843078
4736.000000	4.850163
4734.000000	4.856429
4732.000000	4.865373
4730.000000	4.874998
4728.000000	4.882560
4726.000000	4.889113
4724.000000	4.895144
4722.000000	4.901356
4720.000000	4.908432
4718.000000	4.916511
4716.000000	4.925127
4714.000000	4.934094
4712.000000	4.941670
4710.000000	4.948418
4708.000000	4.956022
4706.000000	4.964298
4704.000000	4.971866
4702.000000	4.979602
4700.000000	4.987823
4698.000000	4.995552
4696.000000	5.002811
4694.000000	5.010900
4692.000000	5.019084
4690.000000	5.026813
4688.000000	5.034223
4686.000000	5.042200
4684.000000	5.049886
4682.000000	5.056852
4680.000000	5.063873
4678.000000	5.071469
4676.000000	5.078453
4674.000000	5.084844
4672.000000	5.092185
4670.000000	5.100235
4668.000000	5.108715
4666.000000	5.116776
4664.000000	5.124146
4662.000000	5.131069
4660.000000	5.138713
4658.000000	5.146484
4656.000000	5.153378
4654.000000	5.159613
4652.000000	5.166798
4650.000000	5.175216
4648.000000	5.182060
4646.000000	5.187342
4644.000000	5.193811
4642.000000	5.202746
4640.000000	5.211865
4638.000000	5.220533
4636.000000	5.227886
4634.000000	5.233460
4632.000000	5.238359
4630.000000	5.245346
4628.000000	5.253612
4626.000000	5.261013
4624.000000	5.267747
4622.000000	5.273948
4620.000000	5.280399
4618.000000	5.289038
4616.000000	5.298517
4614.000000	5.304925
4612.000000	5.308902
4610.000000	5.314470
4608.000000	5.322877
4606.000000	5.332378
4604.000000	5.340551
4602.000000	5.348053
4600.000000	5.356093
4598.000000	5.363939
4596.000000	5.370498
4594.000000	5.376817
4592.000000	5.383582
4590.000000	5.391660
4588.000000	5.400002
4586.000000	5.407069
4584.000000	5.413112
4582.000000	5.419559
4580.000000	5.427232
4578.000000	5.435488
4576.000000	5.442958
4574.000000	5.451250
4572.000000	5.460364
4570.000000	5.466606
4568.000000	5.472430
4566.000000	5.481562
4564.000000	5.489048
4562.000000	5.493636
4560.000000	5.499999
4558.000000	5.508241
4556.000000	5.515141
4554.000000	5.520652
4552.000000	5.526926
4550.000000	5.534948
4548.000000	5.542621
4546.000000	5.549219
4544.000000	5.556492
4542.000000	5.563891
4540.000000	5.570540
4538.000000	5.578124
4536.000000	5.586362
4534.000000	5.593533
4532.000000	5.599089
4530.000000	5.604830
4528.000000	5.611504
4526.000000	5.619186
4524.000000	5.627264
4522.000000	5.634789
4520.000000	5.641350
4518.000000	5.648210
4516.000000	5.655565
4514.000000	5.662079
4512.000000	5.667895
4510.000000	5.674965
4508.000000	5.683417
4506.000000	5.691972
4504.000000	5.699088
4502.000000	5.704928
4500.000000	5.711948
4498.000000	5.720621
4496.000000	5.728987
4494.000000	5.736694
4492.000000	5.744508
4490.000000	5.751270
4488.000000	5.756361
4486.000000	5.761396
4484.000000	5.769192
4482.000000	5.778846
4480.000000	5.787515
4478.000000	5.794358
4476.000000	5.800522
4474.000000	5.807455
4472.000000	5.814965
4470.000000	5.821602
4468.000000	5.827587
4466.000000	5.834492
4464.000000	5.842055
4462.000000	5.848924
4460.000000	5.854476
4458.000000	5.860237
4456.000000	5.866521
4454.000000	5.873026
4452.000000	5.879636
4450.000000	5.885902
4448.000000	5.892462
4446.000000	5.900237
4444.000000	5.906904
4442.000000	5.912789
4440.000000	5.920111
4438.000000	5.928692
4436.000000	5.936390
4434.000000	5.942447
4432.000000	5.947114
4430.000000	5.953199
4428.000000	5.960421
4426.000000	5.967947
4424.000000	5.976037
4422.000000	5.983361
4420.000000	5.988809
4418.000000	5.995130
4416.000000	6.001470
4414.000000	6.007332
4412.000000	6.013718
4410.000000	6.020119
4408.000000	6.026310
4406.000000	6.032577
4404.000000	6.038074
4402.000000	6.044420
4400.000000	6.052374
4398.000000	6.059800
4396.000000	6.067048
4394.000000	6.074844
4392.000000	6.082163
4390.000000	6.089345
4388.000000	6.096433
4386.000000	6.102735
4384.000000	6.108801
4382.000000	6.114657
4380.000000	6.119936
4378.000000	6.125370
4376.000000	6.131405
4374.000000	6.137809
4372.000000	6.142729
4370.000000	6.147048
4368.000000	6.151956
4366.000000	6.156996
4364.000000	6.163440
4362.000000	6.170847
4360.000000	6.177130
4358.000000	6.183996
4356.000000	6.191716
4354.000000	6.196970
4352.000000	6.200260
4350.000000	6.204592
4348.000000	6.210787
4346.000000	6.217565
4344.000000	6.223551
4342.000000	6.229670
4340.000000	6.236090
4338.000000	6.242096
4336.000000	6.248191
4334.000000	6.253245
4332.000000	6.257991
4330.000000	6.265797
4328.000000	6.273277
4326.000000	6.278355
4324.000000	6.284633
4322.000000	6.291869
4320.000000	6.297799
4318.000000	6.303804
4316.000000	6.309799
4314.000000	6.316280
4312.000000	6.323656
4310.000000	6.330256
4308.000000	6.335983
4306.000000	6.343270
4304.000000	6.350563
4302.000000	6.356394
4300.000000	6.361353
4298.000000	6.367391
4296.000000	6.374135
4294.000000	6.379741
4292.000000	6.384524
4290.000000	6.390709
4288.000000	6.396994
4286.000000	6.403446
4284.000000	6.410547
4282.000000	6.415833
4280.000000	6.418714
4278.000000	6.423466
4276.000000	6.429840
4274.000000	6.435576
4272.000000	6.441055
4270.000000	6.447105
4268.000000	6.452930
4266.000000	6.457642
4264.000000	6.461930
4262.000000	6.467773
4260.000000	6.474384
4258.000000	6.480702
4256.000000	6.486535
4254.000000	6.492138
4252.000000	6.498579
4250.000000	6.504610
4248.000000	6.509033
4246.000000	6.513992
4244.000000	6.520887
4242.000000	6.528832
4240.000000	6.535594
4238.000000	6.541713
4236.000000	6.548789
4234.000000	6.555123
4232.000000	6.560217
4230.000000	6.565898
4228.000000	6.571635
4226.000000	6.577166
4224.000000	6.582523
4222.000000	6.588281
4220.000000	6.595486
4218.000000	6.602872
4216.000000	6.608589
4214.000000	6.614346
4212.000000	6.620777
4210.000000	6.627532
4208.000000	6.634922
4206.000000	6.642381
4204.000000	6.649431
4202.000000	6.656514
4200.000000	6.663945
4198.000000	6.672050
4196.000000	6.678956
4194.000000	6.684602
4192.000000	6.691005
4190.000000	6.697560
4188.000000	6.703277
4186.000000	6.710360
4184.000000	6.718160
4182.000000	6.724537
4180.000000	6.730734
4178.000000	6.738031
4176.000000	6.744651
4174.000000	6.750920
4172.000000	6.757364
4170.000000	6.763192
4168.000000	6.768466
4166.000000	6.774847
4164.000000	6.782073
4162.000000	6.789253
4160.000000	6.795511
4158.000000	6.800921
4156.000000	6.806876
4154.000000	6.814491
4152.000000	6.822718
4150.000000	6.830060
4148.000000	6.836366
4146.000000	6.843224
4144.000000	6.850768
4142.000000	6.857769
4140.000000	6.863768
4138.000000	6.869339
4136.000000	6.875000
4134.000000	6.881816
4132.000000	6.889835
4130.000000	6.897788
4128.000000	6.904800
4126.000000	6.911284
4124.000000	6.918229
4122.000000	6.925910
4120.000000	6.932740
4118.000000	6.938422
4116.000000	6.944848
4114.000000	6.952415
4112.000000	6.959151
4110.000000	6.965432
4108.000000	6.972723
4106.000000	6.980424
4104.000000	6.987894
4102.000000	6.993928
4100.000000	6.999518
4098.000000	7.006857
4096.000000	7.013487
4094.000000	7.018920
4092.000000	7.025509
4090.000000	7.032353
4088.000000	7.038730
4086.000000	7.044841
4084.000000	7.051794
4082.000000	7.060620
4080.000000	7.068263
4078.000000	7.074153
4076.000000	7.080430
4074.000000	7.086784
4072.000000	7.093416
4070.000000	7.100518
4068.000000	7.107775
4066.000000	7.114943
4064.000000	7.121069
4062.000000	7.128154
4060.000000	7.137666
4058.000000	7.145441
4056.000000	7.149307
4054.000000	7.153870
4052.000000	7.160337
4050.000000	7.165960
4048.000000	7.172014
4046.000000	7.179304
4044.000000	7.186900
4042.000000	7.195060
4040.000000	7.202058
4038.000000	7.207598
4036.000000	7.214486
4034.000000	7.222793
4032.000000	7.229769
4030.000000	7.235358
4028.000000	7.241251
4026.000000	7.248935
4024.000000	7.258497
4022.000000	7.267087
4020.000000	7.273993
4018.000000	7.281611
4016.000000	7.289214
4014.000000	7.296202
4012.000000	7.303259
4010.000000	7.310399
4008.000000	7.317696
4006.000000	7.325641
4004.000000	7.334006
4002.000000	7.341784
4000.000000	7.348280
3998.000000	7.354420
3996.000000	7.361816
3994.000000	7.370529
3992.000000	7.378633
3990.000000	7.386271
3988.000000	7.393552
3986.000000	7.400252
3984.000000	7.407771
3982.000000	7.415792
3980.000000	7.421942
3978.000000	7.427924
3976.000000	7.436438
3974.000000	7.445333
3972.000000	7.451833
3970.000000	7.457928
3968.000000	7.465366
3966.000000	7.473423
3964.000000	7.481941
3962.000000	7.491770
3960.000000	7.500582
3958.000000	7.507371
3956.000000	7.514266
3954.000000	7.521618
3952.000000	7.528569
3950.000000	7.535133
3948.000000	7.543486
3946.000000	7.552814
3944.000000	7.558881
3942.000000	7.566349
3940.000000	7.578500
3938.000000	7.590386
3936.000000	7.598389
3934.000000	7.603185
3932.000000	7.610312
3930.000000	7.622287
3928.000000	7.632478
3926.000000	7.640023
3924.000000	7.649750
3922.000000	7.658135
3920.000000	7.663625
3918.000000	7.672598
3916.000000	7.687269
3914.000000	7.703974
3912.000000	7.718493
3910.000000	7.727759
3908.000000	7.726716
3906.000000	7.715023
3904.000000	7.708518
3902.000000	7.718981
3900.000000	7.741266
3898.000000	7.767994
3896.000000	7.786580
3894.000000	7.786398
3892.000000	7.785721
3890.000000	7.797355
3888.000000	7.800436
3886.000000	7.801740
3884.000000	7.816627
3882.000000	7.829082
3880.000000	7.842736
3878.000000	7.860703
3876.000000	7.868113
3874.000000	7.863334
3872.000000	7.850102
3870.000000	7.850909
3868.000000	7.871504
3866.000000	7.886509
3864.000000	7.900838
3862.000000	7.923324
3860.000000	7.939300
3858.000000	7.919248
3856.000000	7.853596
3854.000000	7.820561
3852.000000	7.877118
3850.000000	7.957820
3848.000000	7.998889
3846.000000	8.005403
3844.000000	8.000268
3842.000000	7.988434
3840.000000	7.965365
3838.000000	7.961813
3836.000000	7.995639
3834.000000	8.030963
3832.000000	8.052077
3830.000000	8.069222
3828.000000	8.080118
3826.000000	8.082575
3824.000000	8.068305
3822.000000	8.055405
3820.000000	8.064765
3818.000000	8.067926
3816.000000	8.079018
3814.000000	8.121534
3812.000000	8.152016
3810.000000	8.145214
3808.000000	8.131172
3806.000000	8.136385
3804.000000	8.130415
3802.000000	8.121717
3800.000000	8.150277
3798.000000	8.184332
3796.000000	8.204054
3794.000000	8.221879
3792.000000	8.234109
3790.000000	8.239881
3788.000000	8.242617
3786.000000	8.246179
3784.000000	8.251442
3782.000000	8.253562
3780.000000	8.256470
3778.000000	8.269078
3776.000000	8.283235
3774.000000	8.286812
3772.000000	8.278384
3770.000000	8.274586
3768.000000	8.283734
3766.000000	8.296204
3764.000000	8.307042
3762.000000	8.308399
3760.000000	8.305296
3758.000000	8.310615
3756.000000	8.303724
3754.000000	8.264767
3752.000000	8.229652
3750.000000	8.238323
3748.000000	8.252524
3746.000000	8.235431
3744.000000	8.255796
3742.000000	8.320587
3740.000000	8.345847
3738.000000	8.326910
3736.000000	8.313336
3734.000000	8.324167
3732.000000	8.351945
3730.000000	8.379821
3728.000000	8.388541
3726.000000	8.388241
3724.000000	8.392601
3722.000000	8.400538
3720.000000	8.409716
3718.000000	8.415321
3716.000000	8.406821
3714.000000	8.380229
3712.000000	8.364984
3710.000000	8.381372
3708.000000	8.406221
3706.000000	8.416622
3704.000000	8.410273
3702.000000	8.403223
3700.000000	8.406420
3698.000000	8.409594
3696.000000	8.403755
3694.000000	8.383933
3692.000000	8.346405
3690.000000	8.309434
3688.000000	8.314211
3686.000000	8.349211
3684.000000	8.363905
3682.000000	8.352461
3680.000000	8.321412
3678.000000	8.267189
3676.000000	8.229016
3674.000000	8.227775
3672.000000	8.217411
3670.000000	8.212623
3668.000000	8.235901
3666.000000	8.248788
3664.000000	8.238803
3662.000000	8.222003
3660.000000	8.198127
3658.000000	8.163954
3656.000000	8.142714
3654.000000	8.125646
3652.000000	8.078880
3650.000000	8.035495
3648.000000	8.038828
3646.000000	8.062958
3644.000000	8.069503
3642.000000	8.058857
3640.000000	8.044051
3638.000000	8.027249
3636.000000	8.005858
3634.000000	7.979674
3632.000000	7.934689
3630.000000	7.888322
3628.000000	7.889489
3626.000000	7.913590
3624.000000	7.911269
3622.000000	7.882315
3620.000000	7.853452
3618.000000	7.843384
3616.000000	7.836325
3614.000000	7.819855
3612.000000	7.800655
3610.000000	7.784430
3608.000000	7.781164
3606.000000	7.784154
3604.000000	7.776722
3602.000000	7.761315
3600.000000	7.747874
3598.000000	7.734730
3596.000000	7.719527
3594.000000	7.709967
3592.000000	7.698681
3590.000000	7.676107
3588.000000	7.659150
3586.000000	7.659711
3584.000000	7.664423
3582.000000	7.661207
3580.000000	7.652432
3578.000000	7.644089
3576.000000	7.637476
3574.000000	7.631187
3572.000000	7.620052
3570.000000	7.600518
3568.000000	7.584069
3566.000000	7.583945
3564.000000	7.591031
3562.000000	7.591153
3560.000000	7.586211
3558.000000	7.581770
3556.000000	7.575454
3554.000000	7.568251
3552.000000	7.561715
3550.000000	7.553984
3548.000000	7.546616
3546.000000	7.541948
3544.000000	7.540042
3542.000000	7.539377
3540.000000	7.537092
3538.000000	7.532288
3536.000000	7.527010
3534.000000	7.520858
3532.000000	7.511977
3530.000000	7.502370
3528.000000	7.494438
3526.000000	7.488682
3524.000000	7.483796
3522.000000	7.479137
3520.000000	7.473771
3518.000000	7.467468
3516.000000	7.459929
3514.000000	7.449697
3512.000000	7.437744
3510.000000	7.430159
3508.000000	7.425524
3506.000000	7.415831
3504.000000	7.404784
3502.000000	7.396655
3500.000000	7.387784
3498.000000	7.378459
3496.000000	7.369461
3494.000000	7.360207
3492.000000	7.349833
3490.000000	7.338588
3488.000000	7.329463
3486.000000	7.322096
3484.000000	7.313046
3482.000000	7.305347
3480.000000	7.300285
3478.000000	7.295366
3476.000000	7.290495
3474.000000	7.285868
3472.000000	7.281125
3470.000000	7.276069
3468.000000	7.273058
3466.000000	7.273240
3464.000000	7.273128
3462.000000	7.270529
3460.000000	7.267123
3458.000000	7.266090
3456.000000	7.266419
3454.000000	7.264571
3452.000000	7.260744
3450.000000	7.256688
3448.000000	7.253438
3446.000000	7.253025
3444.000000	7.253489
3442.000000	7.254123
3440.000000	7.257172
3438.000000	7.262616
3436.000000	7.270982
3434.000000	7.281235
3432.000000	7.290614
3430.000000	7.299680
3428.000000	7.309886
3426.000000	7.319338
3424.000000	7.326671
3422.000000	7.332907
3420.000000	7.339782
3418.000000	7.347051
3416.000000	7.354641
3414.000000	7.360771
3412.000000	7.363767
3410.000000	7.365854
3408.000000	7.370039
3406.000000	7.373759
3404.000000	7.375334
3402.000000	7.379089
3400.000000	7.384958
3398.000000	7.389290
3396.000000	7.392271
3394.000000	7.396736
3392.000000	7.401585
3390.000000	7.406038
3388.000000	7.412456
3386.000000	7.419167
3384.000000	7.423809
3382.000000	7.427348
3380.000000	7.430392
3378.000000	7.433766
3376.000000	7.437639
3374.000000	7.440863
3372.000000	7.444871
3370.000000	7.447404
3368.000000	7.447307
3366.000000	7.448517
3364.000000	7.451680
3362.000000	7.455267
3360.000000	7.458637
3358.000000	7.462174
3356.000000	7.465620
3354.000000	7.469232
3352.000000	7.471681
3350.000000	7.473009
3348.000000	7.475385
3346.000000	7.478590
3344.000000	7.481407
3342.000000	7.484523
3340.000000	7.487384
3338.000000	7.490613
3336.000000	7.494223
3334.000000	7.497129
3332.000000	7.500466
3330.000000	7.503763
3328.000000	7.504897
3326.000000	7.504596
3324.000000	7.506522
3322.000000	7.511289
3320.000000	7.516085
3318.000000	7.518353
3316.000000	7.520821
3314.000000	7.524099
3312.000000	7.524568
3310.000000	7.523080
3308.000000	7.523252
3306.000000	7.525254
3304.000000	7.527280
3302.000000	7.529407
3300.000000	7.531222
3298.000000	7.533716
3296.000000	7.537231
3294.000000	7.539790
3292.000000	7.542073
3290.000000	7.544941
3288.000000	7.547405
3286.000000	7.549195
3284.000000	7.551642
3282.000000	7.555335
3280.000000	7.558079
3278.000000	7.559682
3276.000000	7.561805
3274.000000	7.563796
3272.000000	7.565476
3270.000000	7.567378
3268.000000	7.569763
3266.000000	7.571911
3264.000000	7.574151
3262.000000	7.577387
3260.000000	7.581461
3258.000000	7.584598
3256.000000	7.586515
3254.000000	7.589918
3252.000000	7.593628
3250.000000	7.595917
3248.000000	7.598097
3246.000000	7.601600
3244.000000	7.605757
3242.000000	7.609831
3240.000000	7.614321
3238.000000	7.618634
3236.000000	7.621787
3234.000000	7.625087
3232.000000	7.628387
3230.000000	7.632553
3228.000000	7.637342
3226.000000	7.640110
3224.000000	7.642031
3222.000000	7.645117
3220.000000	7.649579
3218.000000	7.654167
3216.000000	7.656812
3214.000000	7.660699
3212.000000	7.665801
3210.000000	7.670058
3208.000000	7.674604
3206.000000	7.679280
3204.000000	7.684246
3202.000000	7.691298
3200.000000	7.698600
3198.000000	7.704442
3196.000000	7.709902
3194.000000	7.714922
3192.000000	7.721069
3190.000000	7.728023
3188.000000	7.734443
3186.000000	7.739983
3184.000000	7.745542
3182.000000	7.751089
3180.000000	7.756319
3178.000000	7.762447
3176.000000	7.768928
3174.000000	7.775147
3172.000000	7.780498
3170.000000	7.784657
3168.000000	7.789693
3166.000000	7.796982
3164.000000	7.804677
3162.000000	7.811473
3160.000000	7.819863
3158.000000	7.826136
3156.000000	7.829182
3154.000000	7.833785
3152.000000	7.839973
3150.000000	7.846033
3148.000000	7.852755
3146.000000	7.860627
3144.000000	7.868944
3142.000000	7.876289
3140.000000	7.881870
3138.000000	7.886691
3136.000000	7.891987
3134.000000	7.898137
3132.000000	7.904400
3130.000000	7.909530
3128.000000	7.912799
3126.000000	7.916491
3124.000000	7.920822
3122.000000	7.925122
3120.000000	7.928103
3118.000000	7.932884
3116.000000	7.939276
3114.000000	7.943408
3112.000000	7.946020
3110.000000	7.949467
3108.000000	7.954528
3106.000000	7.959451
3104.000000	7.964374
3102.000000	7.969331
3100.000000	7.974066
3098.000000	7.980620
3096.000000	7.988544
3094.000000	7.993945
3092.000000	7.996874
3090.000000	8.000323
3088.000000	8.003712
3086.000000	8.008379
3084.000000	8.013263
3082.000000	8.016876
3080.000000	8.020867
3078.000000	8.024636
3076.000000	8.029144
3074.000000	8.032672
3072.000000	8.032670
3070.000000	8.032854
3068.000000	8.033593
3066.000000	8.033827
3064.000000	8.036871
3062.000000	8.041924
3060.000000	8.046638
3058.000000	8.052344
3056.000000	8.058431
3054.000000	8.063034
3052.000000	8.067298
3050.000000	8.072236
3048.000000	8.077037
3046.000000	8.081393
3044.000000	8.085875
3042.000000	8.089393
3040.000000	8.091857
3038.000000	8.093454
3036.000000	8.094352
3034.000000	8.095541
3032.000000	8.095183
3030.000000	8.092340
3028.000000	8.085334
3026.000000	8.075255
3024.000000	8.064666
3022.000000	8.054575
3020.000000	8.049629
3018.000000	8.053197
3016.000000	8.067586
3014.000000	8.091486
3012.000000	8.119098
3010.000000	8.143726
3008.000000	8.163182
3006.000000	8.178448
3004.000000	8.189521
3002.000000	8.196482
3000.000000	8.202284
2998.000000	8.207718
2996.000000	8.211148
2994.000000	8.213313
2992.000000	8.216193
2990.000000	8.218352
2988.000000	8.217850
2986.000000	8.214502
2984.000000	8.208635
2982.000000	8.201275
2980.000000	8.191143
2978.000000	8.177304
2976.000000	8.158052
2974.000000	8.127780
2972.000000	8.088865
2970.000000	8.045075
2968.000000	7.999484
2966.000000	7.959256
2964.000000	7.931555
2962.000000	7.922078
2960.000000	7.929808
2958.000000	7.948467
2956.000000	7.970892
2954.000000	7.990690
2952.000000	8.006145
2950.000000	8.015372
2948.000000	8.015529
2946.000000	8.004744
2944.000000	7.981961
2942.000000	7.946840
2940.000000	7.904203
2938.000000	7.861707
2936.000000	7.824439
2934.000000	7.792309
2932.000000	7.759884
2930.000000	7.727406
2928.000000	7.703156
2926.000000	7.696508
2924.000000	7.714413
2922.000000	7.758961
2920.000000	7.825311
2918.000000	7.904126
2916.000000	7.985098
2914.000000	8.059134
2912.000000	8.122465
2910.000000	8.173894
2908.000000	8.213427
2906.000000	8.246441
2904.000000	8.278451
2902.000000	8.308770
2900.000000	8.336391
2898.000000	8.361472
2896.000000	8.385254
2894.000000	8.410578
2892.000000	8.435256
2890.000000	8.455557
2888.000000	8.474105
2886.000000	8.490431
2884.000000	8.502293
2882.000000	8.511153
2880.000000	8.514640
2878.000000	8.512061
2876.000000	8.506201
2874.000000	8.495612
2872.000000	8.475589
2870.000000	8.443448
2868.000000	8.401421
2866.000000	8.352961
2864.000000	8.310559
2862.000000	8.289088
2860.000000	8.290686
2858.000000	8.312749
2856.000000	8.345806
2854.000000	8.381421
2852.000000	8.422912
2850.000000	8.474743
2848.000000	8.534211
2846.000000	8.594383
2844.000000	8.648072
2842.000000	8.691384
2840.000000	8.726125
2838.000000	8.753768
2836.000000	8.776789
2834.000000	8.796927
2832.000000	8.815138
2830.000000	8.831516
2828.000000	8.846155
2826.000000	8.859764
2824.000000	8.871869
2822.000000	8.882623
2820.000000	8.893673
2818.000000	8.905178
2816.000000	8.916333
2814.000000	8.925647
2812.000000	8.933542
2810.000000	8.941293
2808.000000	8.948040
2806.000000	8.955318
2804.000000	8.963442
2802.000000	8.970117
2800.000000	8.975009
2798.000000	8.981616
2796.000000	8.989927
2794.000000	8.997437
2792.000000	9.004879
2790.000000	9.013232
2788.000000	9.021951
2786.000000	9.031998
2784.000000	9.041511
2782.000000	9.049151
2780.000000	9.058189
2778.000000	9.068407
2776.000000	9.075507
2774.000000	9.081891
2772.000000	9.090810
2770.000000	9.099926
2768.000000	9.106470
2766.000000	9.111317
2764.000000	9.117781
2762.000000	9.123456
2760.000000	9.127566
2758.000000	9.133759
2756.000000	9.139535
2754.000000	9.145353
2752.000000	9.151200
2750.000000	9.156151
2748.000000	9.159926
2746.000000	9.162760
2744.000000	9.168039
2742.000000	9.174891
2740.000000	9.179245
2738.000000	9.180837
2736.000000	9.184258
2734.000000	9.189614
2732.000000	9.192319
2730.000000	9.194436
2728.000000	9.199493
2726.000000	9.204322
2724.000000	9.206349
2722.000000	9.209833
2720.000000	9.215462
2718.000000	9.219765
2716.000000	9.221096
2714.000000	9.220949
2712.000000	9.222689
2710.000000	9.226891
2708.000000	9.229788
2706.000000	9.231255
2704.000000	9.234718
2702.000000	9.239019
2700.000000	9.241386
2698.000000	9.244145
2696.000000	9.248475
2694.000000	9.252565
2692.000000	9.256465
2690.000000	9.259571
2688.000000	9.261361
2686.000000	9.263028
2684.000000	9.266039
2682.000000	9.268297
2680.000000	9.269779
2678.000000	9.271126
2676.000000	9.271822
2674.000000	9.273629
2672.000000	9.276158
2670.000000	9.277266
2668.000000	9.277845
2666.000000	9.276873
2664.000000	9.276927
2662.000000	9.280261
2660.000000	9.283160
2658.000000	9.284295
2656.000000	9.285287
2654.000000	9.285478
2652.000000	9.285335
2650.000000	9.286196
2648.000000	9.286605
2646.000000	9.287104
2644.000000	9.288998
2642.000000	9.289875
2640.000000	9.290824
2638.000000	9.292553
2636.000000	9.295078
2634.000000	9.296013
2632.000000	9.294324
2630.000000	9.292850
2628.000000	9.292923
2626.000000	9.293387
2624.000000	9.293016
2622.000000	9.292385
2620.000000	9.292250
2618.000000	9.291645
2616.000000	9.292274
2614.000000	9.293064
2612.000000	9.293242
2610.000000	9.292188
2608.000000	9.289722
2606.000000	9.286161
2604.000000	9.284075
2602.000000	9.282511
2600.000000	9.280896
2598.000000	9.279178
2596.000000	9.277151
2594.000000	9.275242
2592.000000	9.273718
2590.000000	9.272995
2588.000000	9.273635
2586.000000	9.276056
2584.000000	9.279459
2582.000000	9.281933
2580.000000	9.282678
2578.000000	9.283944
2576.000000	9.286195
2574.000000	9.288173
2572.000000	9.289448
2570.000000	9.290196
2568.000000	9.290888
2566.000000	9.290344
2564.000000	9.289656
2562.000000	9.289580
2560.000000	9.289021
2558.000000	9.288098
2556.000000	9.286290
2554.000000	9.284425
2552.000000	9.283320
2550.000000	9.283171
2548.000000	9.283550
2546.000000	9.281684
2544.000000	9.278562
2542.000000	9.276615
2540.000000	9.275647
2538.000000	9.274463
2536.000000	9.273093
2534.000000	9.270985
2532.000000	9.269349
2530.000000	9.268471
2528.000000	9.268106
2526.000000	9.266724
2524.000000	9.263649
2522.000000	9.261530
2520.000000	9.260315
2518.000000	9.257583
2516.000000	9.255845
2514.000000	9.253548
2512.000000	9.251103
2510.000000	9.249869
2508.000000	9.248566
2506.000000	9.247397
2504.000000	9.244692
2502.000000	9.241434
2500.000000	9.239645
2498.000000	9.238523
2496.000000	9.237195
2494.000000	9.234821
2492.000000	9.230862
2490.000000	9.229045
2488.000000	9.230235
2486.000000	9.228513
2484.000000	9.224464
2482.000000	9.221899
2480.000000	9.220831
2478.000000	9.220201
2476.000000	9.217722
2474.000000	9.213504
2472.000000	9.210261
2470.000000	9.209105
2468.000000	9.208738
2466.000000	9.206911
2464.000000	9.204074
2462.000000	9.200544
2460.000000	9.196920
2458.000000	9.194254
2456.000000	9.193620
2454.000000	9.192070
2452.000000	9.189769
2450.000000	9.186991
2448.000000	9.184436
2446.000000	9.185278
2444.000000	9.186877
2442.000000	9.186059
2440.000000	9.184370
2438.000000	9.182871
2436.000000	9.182310
2434.000000	9.182406
2432.000000	9.182684
2430.000000	9.182071
2428.000000	9.182599
2426.000000	9.183854
2424.000000	9.186147
2422.000000	9.189467
2420.000000	9.192822
2418.000000	9.197184
2416.000000	9.202844
2414.000000	9.207131
2412.000000	9.210931
2410.000000	9.215405
2408.000000	9.218871
2406.000000	9.221603
2404.000000	9.225266
2402.000000	9.229606
2400.000000	9.233196
2398.000000	9.235957
2396.000000	9.237819
2394.000000	9.239964
2392.000000	9.242979
2390.000000	9.245744
2388.000000	9.247428
2386.000000	9.247532
2384.000000	9.244935
2382.000000	9.240347
2380.000000	9.234365
2378.000000	9.226789
2376.000000	9.214472
2374.000000	9.196569
2372.000000	9.176623
2370.000000	9.156135
2368.000000	9.137545
2366.000000	9.121964
2364.000000	9.111772
2362.000000	9.107892
2360.000000	9.109929
2358.000000	9.119680
2356.000000	9.138929
2354.000000	9.163818
2352.000000	9.190387
2350.000000	9.206760
2348.000000	9.198469
2346.000000	9.171965
2344.000000	9.141055
2342.000000	9.113087
2340.000000	9.097655
2338.000000	9.102244
2336.000000	9.115035
2334.000000	9.123733
2332.000000	9.128167
2330.000000	9.132688
2328.000000	9.141002
2326.000000	9.148719
2324.000000	9.155931
2322.000000	9.164403
2320.000000	9.170971
2318.000000	9.175865
2316.000000	9.181594
2314.000000	9.187334
2312.000000	9.192416
2310.000000	9.195416
2308.000000	9.196261
2306.000000	9.196615
2304.000000	9.196641
2302.000000	9.195766
2300.000000	9.196021
2298.000000	9.197010
2296.000000	9.197842
2294.000000	9.195961
2292.000000	9.193011
2290.000000	9.191772
2288.000000	9.191867
2286.000000	9.192578
2284.000000	9.193213
2282.000000	9.190483
2280.000000	9.185792
2278.000000	9.182265
2276.000000	9.179326
2274.000000	9.175964
2272.000000	9.173663
2270.000000	9.172204
2268.000000	9.169594
2266.000000	9.167502
2264.000000	9.168082
2262.000000	9.168048
2260.000000	9.164418
2258.000000	9.160291
2256.000000	9.157964
2254.000000	9.157270
2252.000000	9.155577
2250.000000	9.153634
2248.000000	9.153716
2246.000000	9.154215
2244.000000	9.154116
2242.000000	9.153518
2240.000000	9.152219
2238.000000	9.152039
2236.000000	9.154063
2234.000000	9.154427
2232.000000	9.153351
2230.000000	9.151504
2228.000000	9.152210
2226.000000	9.153513
2224.000000	9.154292
2222.000000	9.155444
2220.000000	9.155638
2218.000000	9.155593
2216.000000	9.155833
2214.000000	9.154319
2212.000000	9.154593
2210.000000	9.155904
2208.000000	9.156355
2206.000000	9.157779
2204.000000	9.159953
2202.000000	9.160405
2200.000000	9.159188
2198.000000	9.158107
2196.000000	9.158127
2194.000000	9.160292
2192.000000	9.162791
2190.000000	9.163294
2188.000000	9.163778
2186.000000	9.165473
2184.000000	9.167525
2182.000000	9.168829
2180.000000	9.169931
2178.000000	9.169130
2176.000000	9.168563
2174.000000	9.170764
2172.000000	9.170443
2170.000000	9.169067
2168.000000	9.172116
2166.000000	9.175526
2164.000000	9.177849
2162.000000	9.180684
2160.000000	9.182476
2158.000000	9.182534
2156.000000	9.183294
2154.000000	9.186631
2152.000000	9.189810
2150.000000	9.192127
2148.000000	9.194080
2146.000000	9.197118
2144.000000	9.199518
2142.000000	9.199896
2140.000000	9.202325
2138.000000	9.206049
2136.000000	9.210198
2134.000000	9.212648
2132.000000	9.213756
2130.000000	9.215938
2128.000000	9.219815
2126.000000	9.224468
2124.000000	9.228728
2122.000000	9.230976
2120.000000	9.233732
2118.000000	9.236778
2116.000000	9.240493
2114.000000	9.246463
2112.000000	9.250785
2110.000000	9.253326
2108.000000	9.257349
2106.000000	9.262831
2104.000000	9.269899
2102.000000	9.276997
2100.000000	9.280805
2098.000000	9.284034
2096.000000	9.289165
2094.000000	9.293107
2092.000000	9.296306
2090.000000	9.300992
2088.000000	9.307658
2086.000000	9.314407
2084.000000	9.319968
2082.000000	9.325066
2080.000000	9.332405
2078.000000	9.338513
2076.000000	9.343196
2074.000000	9.349378
2072.000000	9.355823
2070.000000	9.361300
2068.000000	9.365950
2066.000000	9.371065
2064.000000	9.377011
2062.000000	9.382248
2060.000000	9.388215
2058.000000	9.394478
2056.000000	9.400918
2054.000000	9.405648
2052.000000	9.412220
2050.000000	9.419705
2048.000000	9.425607
2046.000000	9.431213
2044.000000	9.436582
2042.000000	9.440461
2040.000000	9.446417
2038.000000	9.451453
2036.000000	9.456712
2034.000000	9.461403
2032.000000	9.464965
2030.000000	9.468022
2028.000000	9.472981
2026.000000	9.478403
2024.000000	9.484156
2022.000000	9.490604
2020.000000	9.494446
2018.000000	9.496729
2016.000000	9.501625
2014.000000	9.507608
2012.000000	9.512836
2010.000000	9.516290
2008.000000	9.521044
2006.000000	9.525268
2004.000000	9.528213
2002.000000	9.532127
2000.000000	9.537056
1998.000000	9.540980
1996.000000	9.543544
1994.000000	9.542757
1992.000000	9.542634
1990.000000	9.547015
1988.000000	9.550280
1986.000000	9.551924
1984.000000	9.553480
1982.000000	9.554061
1980.000000	9.554225
1978.000000	9.555990
1976.000000	9.557532
1974.000000	9.556428
1972.000000	9.554378
1970.000000	9.552773
1968.000000	9.550341
1966.000000	9.549120
1964.000000	9.548414
1962.000000	9.542503
1960.000000	9.531684
1958.000000	9.531962
1956.000000	9.541405
1954.000000	9.544443
1952.000000	9.543702
1950.000000	9.541241
1948.000000	9.538256
1946.000000	9.532990
1944.000000	9.526097
1942.000000	9.523888
1940.000000	9.528782
1938.000000	9.529479
1936.000000	9.526274
1934.000000	9.522433
1932.000000	9.519713
1930.000000	9.518079
1928.000000	9.516436
1926.000000	9.510729
1924.000000	9.501656
1922.000000	9.496366
1920.000000	9.486420
1918.000000	9.476160
1916.000000	9.483012
1914.000000	9.485682
1912.000000	9.477873
1910.000000	9.467530
1908.000000	9.462715
1906.000000	9.457482
1904.000000	9.451378
1902.000000	9.445201
1900.000000	9.439527
1898.000000	9.431960
1896.000000	9.425076
1894.000000	9.422144
1892.000000	9.418229
1890.000000	9.409011
1888.000000	9.408501
1886.000000	9.409731
1884.000000	9.407551
1882.000000	9.403118
1880.000000	9.400068
1878.000000	9.396414
1876.000000	9.391209
1874.000000	9.385507
1872.000000	9.373210
1870.000000	9.351607
1868.000000	9.348643
1866.000000	9.358360
1864.000000	9.361107
1862.000000	9.357105
1860.000000	9.352214
1858.000000	9.345737
1856.000000	9.339033
1854.000000	9.332809
1852.000000	9.328589
1850.000000	9.320937
1848.000000	9.307786
1846.000000	9.276475
1844.000000	9.259257
1842.000000	9.278771
1840.000000	9.286870
1838.000000	9.279213
1836.000000	9.271969
1834.000000	9.261767
1832.000000	9.237777
1830.000000	9.217009
1828.000000	9.217183
1826.000000	9.208935
1824.000000	9.206400
1822.000000	9.208509
1820.000000	9.199242
1818.000000	9.185894
1816.000000	9.175112
1814.000000	9.162092
1812.000000	9.146130
1810.000000	9.134764
1808.000000	9.129524
1806.000000	9.119759
1804.000000	9.101250
1802.000000	9.075729
1800.000000	9.060080
1798.000000	9.053093
1796.000000	9.036768
1794.000000	8.995741
1792.000000	8.972500
1790.000000	8.985364
1788.000000	8.986059
1786.000000	8.964288
1784.000000	8.947581
1782.000000	8.931857
1780.000000	8.916415
1778.000000	8.906018
1776.000000	8.880009
1774.000000	8.823907
1772.000000	8.797942
1770.000000	8.813181
1768.000000	8.815619
1766.000000	8.818420
1764.000000	8.797430
1762.000000	8.768334
1760.000000	8.762766
1758.000000	8.747335
1756.000000	8.731343
1754.000000	8.707884
1752.000000	8.656331
1750.000000	8.636230
1748.000000	8.638560
1746.000000	8.630723
1744.000000	8.610648
1742.000000	8.580280
1740.000000	8.553358
1738.000000	8.542604
1736.000000	8.477618
1734.000000	8.425201
1732.000000	8.474308
1730.000000	8.510613
1728.000000	8.514481
1726.000000	8.507851
1724.000000	8.497221
1722.000000	8.479900
1720.000000	8.420964
1718.000000	8.351062
1716.000000	8.367679
1714.000000	8.413361
1712.000000	8.430185
1710.000000	8.418408
1708.000000	8.393470
1706.000000	8.366906
1704.000000	8.350144
1702.000000	8.277639
1700.000000	8.234405
1698.000000	8.248681
1696.000000	8.240020
1694.000000	8.300710
1692.000000	8.344695
1690.000000	8.336124
1688.000000	8.300705
1686.000000	8.208530
1684.000000	8.187836
1682.000000	8.267152
1680.000000	8.300448
1678.000000	8.281168
1676.000000	8.239920
1674.000000	8.240267
1672.000000	8.237850
1670.000000	8.213432
1668.000000	8.227605
1666.000000	8.240985
1664.000000	8.214497
1662.000000	8.203139
1660.000000	8.213684
1658.000000	8.202466
1656.000000	8.119209
1654.000000	7.982898
1652.000000	8.006120
1650.000000	8.104601
1648.000000	8.084170
1646.000000	8.065139
1644.000000	8.103952
1642.000000	8.119983
1640.000000	8.099606
1638.000000	8.042125
1636.000000	7.983322
1634.000000	8.008813
1632.000000	8.040144
1630.000000	8.022234
1628.000000	7.993628
1626.000000	7.960506
1624.000000	7.912276
1622.000000	7.881838
1620.000000	7.845138
1618.000000	7.764284
1616.000000	7.727054
1614.000000	7.732286
1612.000000	7.689396
1610.000000	7.635109
1608.000000	7.609615
1606.000000	7.614524
1604.000000	7.631055
1602.000000	7.652396
1600.000000	7.672567
1598.000000	7.688986
1596.000000	7.700646
1594.000000	7.709959
1592.000000	7.714808
1590.000000	7.714654
1588.000000	7.709721
1586.000000	7.702304
1584.000000	7.696084
1582.000000	7.693062
1580.000000	7.681205
1578.000000	7.624141
1576.000000	7.591105
1574.000000	7.641163
1572.000000	7.647915
1570.000000	7.616835
1568.000000	7.618812
1566.000000	7.616959
1564.000000	7.588036
1562.000000	7.501578
1560.000000	7.380575
1558.000000	7.392407
1556.000000	7.475910
1554.000000	7.522514
1552.000000	7.561133
1550.000000	7.584867
1548.000000	7.599384
1546.000000	7.591544
1544.000000	7.569767
1542.000000	7.528110
1540.000000	7.511537
1538.000000	7.597441
1536.000000	7.670630
1534.000000	7.673051
1532.000000	7.697536
1530.000000	7.715213
1528.000000	7.700576
1526.000000	7.680969
1524.000000	7.656325
1522.000000	7.614630
1520.000000	7.622332
1518.000000	7.636237
1516.000000	7.628740
1514.000000	7.621326
1512.000000	7.603614
1510.000000	7.561374
1508.000000	7.464060
1506.000000	7.413974
1504.000000	7.427269
1502.000000	7.342419
1500.000000	7.122696
1498.000000	6.837337
1496.000000	6.628626
1494.000000	6.605933
1492.000000	6.709433
1490.000000	6.866904
1488.000000	7.033610
1486.000000	7.166655
1484.000000	7.252014
1482.000000	7.295210
1480.000000	7.315713
1478.000000	7.309657
1476.000000	7.280304
1474.000000	7.237231
1472.000000	7.224737
1470.000000	7.242433
1468.000000	7.224361
1466.000000	7.174436
1464.000000	7.142926
1462.000000	7.116159
1460.000000	7.032175
1458.000000	6.896057
1456.000000	6.811439
1454.000000	6.779235
1452.000000	6.739744
1450.000000	6.750894
1448.000000	6.827530
1446.000000	6.912468
1444.000000	6.950251
1442.000000	6.956528
1440.000000	6.947554
1438.000000	6.918261
1436.000000	6.920393
1434.000000	6.957778
1432.000000	6.963261
1430.000000	6.957238
1428.000000	6.961513
1426.000000	6.962996
1424.000000	6.955375
1422.000000	6.935674
1420.000000	6.894088
1418.000000	6.891847
1416.000000	6.904559
1414.000000	6.893431
1412.000000	6.863395
1410.000000	6.816627
1408.000000	6.749327
1406.000000	6.681387
1404.000000	6.646271
1402.000000	6.650443
1400.000000	6.672585
1398.000000	6.711571
1396.000000	6.743398
1394.000000	6.774225
1392.000000	6.804589
1390.000000	6.801472
1388.000000	6.772389
1386.000000	6.751668
1384.000000	6.748028
1382.000000	6.759099
1380.000000	6.767843
1378.000000	6.764291
1376.000000	6.751477
1374.000000	6.741697
1372.000000	6.740574
1370.000000	6.733619
1368.000000	6.722571
1366.000000	6.710168
1364.000000	6.690406
1362.000000	6.675963
1360.000000	6.669922
1358.000000	6.659939
1356.000000	6.644804
1354.000000	6.629901
1352.000000	6.614160
1350.000000	6.596577
1348.000000	6.576775
1346.000000	6.557861
1344.000000	6.539232
1342.000000	6.516148
1340.000000	6.493661
1338.000000	6.482316
1336.000000	6.477641
1334.000000	6.469633
1332.000000	6.457413
1330.000000	6.443733
1328.000000	6.426296
1326.000000	6.406088
1324.000000	6.384047
1322.000000	6.361609
1320.000000	6.337242
1318.000000	6.313766
1316.000000	6.289716
1314.000000	6.264005
1312.000000	6.237762
1310.000000	6.212060
1308.000000	6.185266
1306.000000	6.156523
1304.000000	6.127302
1302.000000	6.098654
1300.000000	6.068637
1298.000000	6.039685
1296.000000	6.010487
1294.000000	5.979150
1292.000000	5.944855
1290.000000	5.912379
1288.000000	5.880018
1286.000000	5.843650
1284.000000	5.805752
1282.000000	5.770368
1280.000000	5.733283
1278.000000	5.689863
1276.000000	5.640885
1274.000000	5.586218
1272.000000	5.520217
1270.000000	5.438934
1268.000000	5.333601
1266.000000	5.205174
1264.000000	5.075098
1262.000000	4.971538
1260.000000	4.921697
1258.000000	4.928662
1256.000000	4.965757
1254.000000	4.999163
1252.000000	5.004194
1250.000000	4.984700
1248.000000	4.950299
1246.000000	4.907440
1244.000000	4.860860
1242.000000	4.817873
1240.000000	4.777423
1238.000000	4.734460
1236.000000	4.689512
1234.000000	4.647866
1232.000000	4.610391
1230.000000	4.573971
1228.000000	4.533434
1226.000000	4.490503
1224.000000	4.449775
1222.000000	4.408951
1220.000000	4.363288
1218.000000	4.316964
1216.000000	4.272127
1214.000000	4.228330
1212.000000	4.183346
1210.000000	4.141579
1208.000000	4.106927
1206.000000	4.072031
1204.000000	4.035749
1202.000000	4.000462
1200.000000	3.965011
1198.000000	3.930526
1196.000000	3.895233
1194.000000	3.857710
1192.000000	3.820146
1190.000000	3.782565
1188.000000	3.743180
1186.000000	3.700133
1184.000000	3.645910
1182.000000	3.580635
1180.000000	3.533147
1178.000000	3.511404
1176.000000	3.487945
1174.000000	3.454055
1172.000000	3.416245
1170.000000	3.377493
1168.000000	3.335858
1166.000000	3.291630
1164.000000	3.248177
1162.000000	3.207734
1160.000000	3.168190
1158.000000	3.128732
1156.000000	3.089508
1154.000000	3.052985
1152.000000	3.018686
1150.000000	2.982045
1148.000000	2.942522
1146.000000	2.903240
1144.000000	2.865057
1142.000000	2.830913
1140.000000	2.802442
1138.000000	2.776589
1136.000000	2.746003
1134.000000	2.710307
1132.000000	2.672211
1130.000000	2.634964
1128.000000	2.599837
1126.000000	2.564965
1124.000000	2.525921
1122.000000	2.484132
1120.000000	2.445190
1118.000000	2.407080
1116.000000	2.364736
1114.000000	2.321690
1112.000000	2.281019
1110.000000	2.240597
1108.000000	2.199918
1106.000000	2.161288
1104.000000	2.124229
1102.000000	2.086964
1100.000000	2.050601
1098.000000	2.014522
1096.000000	1.978612
1094.000000	1.944934
1092.000000	1.914744
1090.000000	1.885208
1088.000000	1.855840
1086.000000	1.827248
1084.000000	1.798141
1082.000000	1.768314
1080.000000	1.740348
1078.000000	1.716247
1076.000000	1.694290
1074.000000	1.675664
1072.000000	1.657703
1070.000000	1.640204
1068.000000	1.622999
1066.000000	1.604600
1064.000000	1.585846
1062.000000	1.568352
1060.000000	1.548260
1058.000000	1.524336
1056.000000	1.492819
1054.000000	1.451421
1052.000000	1.409341
1050.000000	1.383818
1048.000000	1.382602
1046.000000	1.390243
1044.000000	1.390158
1042.000000	1.380220
1040.000000	1.365278
1038.000000	1.348884
1036.000000	1.330594
1034.000000	1.311558
1032.000000	1.291793
1030.000000	1.269795
1028.000000	1.246818
1026.000000	1.224177
1024.000000	1.200675
1022.000000	1.177454
1020.000000	1.153869
1018.000000	1.132900
1016.000000	1.114763
1014.000000	1.098520
1012.000000	1.084674
1010.000000	1.072285
1008.000000	1.057877
1006.000000	1.043654
1004.000000	1.028186
1002.000000	1.007914
1000.000000	0.985853
