PE IR       SUBTECH     SPECTRUM    ASCII       PEDS        4.00        
   -1
TE110A_055_120K_BG.ASC
20/05/14
14:11:00.00
20/05/14
14:11:00.00
Administrator
TE110A.Thursday, May 14 2020, 003.
1000.000000
#HDR
-1
-1
#GR
cm-1
EGY
1.0
0.0
6000.000000
-2.000000
2501
8
105.590126
11.024359
#DATA
6000.000000	16.755472
5998.000000	16.788647
5996.000000	16.822311
5994.000000	16.856166
5992.000000	16.889449
5990.000000	16.922854
5988.000000	16.955066
5986.000000	16.987509
5984.000000	17.020176
5982.000000	17.053541
5980.000000	17.087413
5978.000000	17.121600
5976.000000	17.155678
5974.000000	17.190213
5972.000000	17.224446
5970.000000	17.258275
5968.000000	17.292672
5966.000000	17.327116
5964.000000	17.361134
5962.000000	17.395176
5960.000000	17.428744
5958.000000	17.463484
5956.000000	17.498862
5954.000000	17.534253
5952.000000	17.568685
5950.000000	17.601429
5948.000000	17.634005
5946.000000	17.668957
5944.000000	17.704472
5942.000000	17.739480
5940.000000	17.772193
5938.000000	17.805367
5936.000000	17.839483
5934.000000	17.874185
5932.000000	17.908245
5930.000000	17.942213
5928.000000	17.977225
5926.000000	18.011845
5924.000000	18.046272
5922.000000	18.082011
5920.000000	18.118087
5918.000000	18.154680
5916.000000	18.190573
5914.000000	18.226752
5912.000000	18.263772
5910.000000	18.300257
5908.000000	18.336916
5906.000000	18.374514
5904.000000	18.411799
5902.000000	18.449315
5900.000000	18.485663
5898.000000	18.521537
5896.000000	18.558294
5894.000000	18.595585
5892.000000	18.632142
5890.000000	18.667713
5888.000000	18.702967
5886.000000	18.739615
5884.000000	18.776106
5882.000000	18.812430
5880.000000	18.847682
5878.000000	18.883543
5876.000000	18.920149
5874.000000	18.957414
5872.000000	18.993955
5870.000000	19.030171
5868.000000	19.066490
5866.000000	19.104134
5864.000000	19.142057
5862.000000	19.179960
5860.000000	19.218525
5858.000000	19.257149
5856.000000	19.294419
5854.000000	19.331537
5852.000000	19.369547
5850.000000	19.409789
5848.000000	19.450512
5846.000000	19.490197
5844.000000	19.530256
5842.000000	19.570752
5840.000000	19.611999
5838.000000	19.653685
5836.000000	19.696233
5834.000000	19.739055
5832.000000	19.779916
5830.000000	19.820267
5828.000000	19.860709
5826.000000	19.902265
5824.000000	19.944114
5822.000000	19.986357
5820.000000	20.029256
5818.000000	20.070986
5816.000000	20.110422
5814.000000	20.149756
5812.000000	20.190063
5810.000000	20.232033
5808.000000	20.273289
5806.000000	20.313711
5804.000000	20.354681
5802.000000	20.395733
5800.000000	20.436263
5798.000000	20.476191
5796.000000	20.516767
5794.000000	20.558685
5792.000000	20.600252
5790.000000	20.641631
5788.000000	20.683392
5786.000000	20.725329
5784.000000	20.766173
5782.000000	20.807582
5780.000000	20.848991
5778.000000	20.891839
5776.000000	20.933084
5774.000000	20.974650
5772.000000	21.017549
5770.000000	21.059956
5768.000000	21.101400
5766.000000	21.143407
5764.000000	21.186402
5762.000000	21.229272
5760.000000	21.270493
5758.000000	21.311625
5756.000000	21.353942
5754.000000	21.396632
5752.000000	21.439046
5750.000000	21.481122
5748.000000	21.522852
5746.000000	21.564438
5744.000000	21.605507
5742.000000	21.646063
5740.000000	21.686040
5738.000000	21.726493
5736.000000	21.767177
5734.000000	21.807849
5732.000000	21.848297
5730.000000	21.889299
5728.000000	21.930881
5726.000000	21.972377
5724.000000	22.013788
5722.000000	22.055376
5720.000000	22.097671
5718.000000	22.141285
5716.000000	22.185367
5714.000000	22.229712
5712.000000	22.274182
5710.000000	22.317838
5708.000000	22.360811
5706.000000	22.404016
5704.000000	22.448577
5702.000000	22.493437
5700.000000	22.537325
5698.000000	22.580891
5696.000000	22.625402
5694.000000	22.671092
5692.000000	22.716995
5690.000000	22.762757
5688.000000	22.808492
5686.000000	22.853920
5684.000000	22.899834
5682.000000	22.945658
5680.000000	22.990863
5678.000000	23.036421
5676.000000	23.082406
5674.000000	23.128817
5672.000000	23.175054
5670.000000	23.221075
5668.000000	23.266171
5666.000000	23.310829
5664.000000	23.355468
5662.000000	23.400992
5660.000000	23.446654
5658.000000	23.492446
5656.000000	23.538000
5654.000000	23.584133
5652.000000	23.630162
5650.000000	23.676132
5648.000000	23.721855
5646.000000	23.767258
5644.000000	23.813140
5642.000000	23.858981
5640.000000	23.903881
5638.000000	23.948990
5636.000000	23.994302
5634.000000	24.040300
5632.000000	24.085348
5630.000000	24.129851
5628.000000	24.175594
5626.000000	24.222694
5624.000000	24.269517
5622.000000	24.315428
5620.000000	24.360907
5618.000000	24.406237
5616.000000	24.451130
5614.000000	24.496557
5612.000000	24.542483
5610.000000	24.588785
5608.000000	24.634189
5606.000000	24.679176
5604.000000	24.724713
5602.000000	24.770425
5600.000000	24.816641
5598.000000	24.862830
5596.000000	24.909274
5594.000000	24.956537
5592.000000	25.004000
5590.000000	25.051278
5588.000000	25.097528
5586.000000	25.144522
5584.000000	25.191530
5582.000000	25.238614
5580.000000	25.285532
5578.000000	25.333277
5576.000000	25.382114
5574.000000	25.429881
5572.000000	25.477043
5570.000000	25.524371
5568.000000	25.572340
5566.000000	25.620648
5564.000000	25.668805
5562.000000	25.716873
5560.000000	25.764517
5558.000000	25.811668
5556.000000	25.858500
5554.000000	25.905806
5552.000000	25.953101
5550.000000	26.000723
5548.000000	26.047703
5546.000000	26.095449
5544.000000	26.143877
5542.000000	26.191786
5540.000000	26.237379
5538.000000	26.283682
5536.000000	26.331351
5534.000000	26.380773
5532.000000	26.429766
5530.000000	26.478501
5528.000000	26.527224
5526.000000	26.574040
5524.000000	26.619876
5522.000000	26.666431
5520.000000	26.713435
5518.000000	26.761605
5516.000000	26.810692
5514.000000	26.860536
5512.000000	26.906834
5510.000000	26.949851
5508.000000	26.994283
5506.000000	27.043264
5504.000000	27.095233
5502.000000	27.145600
5500.000000	27.194628
5498.000000	27.240145
5496.000000	27.279986
5494.000000	27.320085
5492.000000	27.365306
5490.000000	27.418517
5488.000000	27.474524
5486.000000	27.530137
5484.000000	27.585296
5482.000000	27.637490
5480.000000	27.680931
5478.000000	27.715755
5476.000000	27.755226
5474.000000	27.808401
5472.000000	27.867591
5470.000000	27.920759
5468.000000	27.967471
5466.000000	28.012300
5464.000000	28.055036
5462.000000	28.100975
5460.000000	28.154848
5458.000000	28.214335
5456.000000	28.271700
5454.000000	28.321326
5452.000000	28.363032
5450.000000	28.399687
5448.000000	28.436526
5446.000000	28.480375
5444.000000	28.528224
5442.000000	28.584301
5440.000000	28.640956
5438.000000	28.690120
5436.000000	28.735132
5434.000000	28.780023
5432.000000	28.823836
5430.000000	28.868867
5428.000000	28.925437
5426.000000	28.995243
5424.000000	29.061565
5422.000000	29.117026
5420.000000	29.164977
5418.000000	29.198045
5416.000000	29.220046
5414.000000	29.248487
5412.000000	29.297992
5410.000000	29.366771
5408.000000	29.436156
5406.000000	29.498631
5404.000000	29.553517
5402.000000	29.605440
5400.000000	29.651364
5398.000000	29.685960
5396.000000	29.716594
5394.000000	29.762771
5392.000000	29.827106
5390.000000	29.890365
5388.000000	29.937219
5386.000000	29.982842
5384.000000	30.040284
5382.000000	30.098920
5380.000000	30.139616
5378.000000	30.174199
5376.000000	30.223679
5374.000000	30.292082
5372.000000	30.362112
5370.000000	30.421406
5368.000000	30.469730
5366.000000	30.514312
5364.000000	30.562707
5362.000000	30.617439
5360.000000	30.671042
5358.000000	30.711502
5356.000000	30.741230
5354.000000	30.779327
5352.000000	30.833777
5350.000000	30.891081
5348.000000	30.929251
5346.000000	30.963319
5344.000000	31.012017
5342.000000	31.065999
5340.000000	31.113513
5338.000000	31.165188
5336.000000	31.232808
5334.000000	31.302310
5332.000000	31.356765
5330.000000	31.401003
5328.000000	31.449444
5326.000000	31.508507
5324.000000	31.573473
5322.000000	31.633087
5320.000000	31.685064
5318.000000	31.734244
5316.000000	31.784416
5314.000000	31.836692
5312.000000	31.884571
5310.000000	31.926429
5308.000000	31.971547
5306.000000	32.026367
5304.000000	32.084653
5302.000000	32.138963
5300.000000	32.191596
5298.000000	32.246078
5296.000000	32.297683
5294.000000	32.340929
5292.000000	32.381083
5290.000000	32.428514
5288.000000	32.483374
5286.000000	32.540872
5284.000000	32.595689
5282.000000	32.651372
5280.000000	32.707481
5278.000000	32.764613
5276.000000	32.821047
5274.000000	32.874072
5272.000000	32.921358
5270.000000	32.964481
5268.000000	33.001244
5266.000000	33.035905
5264.000000	33.080440
5262.000000	33.144152
5260.000000	33.214406
5258.000000	33.268976
5256.000000	33.314693
5254.000000	33.365998
5252.000000	33.416976
5250.000000	33.458497
5248.000000	33.497704
5246.000000	33.551124
5244.000000	33.618445
5242.000000	33.688555
5240.000000	33.753558
5238.000000	33.808954
5236.000000	33.857416
5234.000000	33.903222
5232.000000	33.951800
5230.000000	33.999195
5228.000000	34.039862
5226.000000	34.084048
5224.000000	34.142539
5222.000000	34.207531
5220.000000	34.265861
5218.000000	34.321519
5216.000000	34.378947
5214.000000	34.432934
5212.000000	34.474207
5210.000000	34.503992
5208.000000	34.538900
5206.000000	34.596393
5204.000000	34.671295
5202.000000	34.741688
5200.000000	34.795333
5198.000000	34.843792
5196.000000	34.898687
5194.000000	34.958951
5192.000000	35.015009
5190.000000	35.065725
5188.000000	35.113590
5186.000000	35.164656
5184.000000	35.221316
5182.000000	35.282108
5180.000000	35.340702
5178.000000	35.397371
5176.000000	35.454147
5174.000000	35.509031
5172.000000	35.562259
5170.000000	35.616871
5168.000000	35.672168
5166.000000	35.724802
5164.000000	35.776540
5162.000000	35.830917
5160.000000	35.886175
5158.000000	35.940684
5156.000000	35.996054
5154.000000	36.053729
5152.000000	36.110622
5150.000000	36.166353
5148.000000	36.221410
5146.000000	36.274581
5144.000000	36.326360
5142.000000	36.379379
5140.000000	36.434724
5138.000000	36.490825
5136.000000	36.545636
5134.000000	36.600446
5132.000000	36.654821
5130.000000	36.709864
5128.000000	36.764566
5126.000000	36.818856
5124.000000	36.872199
5122.000000	36.924592
5120.000000	36.976852
5118.000000	37.030794
5116.000000	37.086432
5114.000000	37.143097
5112.000000	37.198862
5110.000000	37.254393
5108.000000	37.309318
5106.000000	37.364639
5104.000000	37.419801
5102.000000	37.475350
5100.000000	37.530680
5098.000000	37.585965
5096.000000	37.641332
5094.000000	37.698085
5092.000000	37.756170
5090.000000	37.813935
5088.000000	37.870835
5086.000000	37.928094
5084.000000	37.985186
5082.000000	38.041431
5080.000000	38.097537
5078.000000	38.155134
5076.000000	38.212618
5074.000000	38.269168
5072.000000	38.325764
5070.000000	38.383297
5068.000000	38.439513
5066.000000	38.495058
5064.000000	38.551199
5062.000000	38.608645
5060.000000	38.665448
5058.000000	38.721428
5056.000000	38.776778
5054.000000	38.832389
5052.000000	38.889023
5050.000000	38.947209
5048.000000	39.004645
5046.000000	39.060090
5044.000000	39.114052
5042.000000	39.169626
5040.000000	39.226044
5038.000000	39.282119
5036.000000	39.337347
5034.000000	39.393633
5032.000000	39.450613
5030.000000	39.507556
5028.000000	39.563257
5026.000000	39.618515
5024.000000	39.673517
5022.000000	39.730120
5020.000000	39.787652
5018.000000	39.844873
5016.000000	39.901174
5014.000000	39.958084
5012.000000	40.014704
5010.000000	40.071539
5008.000000	40.128304
5006.000000	40.185951
5004.000000	40.243731
5002.000000	40.302499
5000.000000	40.360523
4998.000000	40.417840
4996.000000	40.474599
4994.000000	40.531522
4992.000000	40.588796
4990.000000	40.647934
4988.000000	40.707878
4986.000000	40.767008
4984.000000	40.824848
4982.000000	40.883798
4980.000000	40.942966
4978.000000	41.001871
4976.000000	41.059963
4974.000000	41.117463
4972.000000	41.174222
4970.000000	41.231933
4968.000000	41.290398
4966.000000	41.348501
4964.000000	41.405876
4962.000000	41.464037
4960.000000	41.522469
4958.000000	41.580284
4956.000000	41.636646
4954.000000	41.693110
4952.000000	41.750188
4950.000000	41.808105
4948.000000	41.865744
4946.000000	41.923020
4944.000000	41.979468
4942.000000	42.035852
4940.000000	42.091822
4938.000000	42.148188
4936.000000	42.205060
4934.000000	42.263047
4932.000000	42.320353
4930.000000	42.376318
4928.000000	42.432258
4926.000000	42.490271
4924.000000	42.549082
4922.000000	42.607019
4920.000000	42.663478
4918.000000	42.720638
4916.000000	42.778743
4914.000000	42.837681
4912.000000	42.896019
4910.000000	42.953617
4908.000000	43.010600
4906.000000	43.068470
4904.000000	43.127334
4902.000000	43.186817
4900.000000	43.246282
4898.000000	43.306035
4896.000000	43.364785
4894.000000	43.423662
4892.000000	43.483360
4890.000000	43.543958
4888.000000	43.603218
4886.000000	43.662028
4884.000000	43.721913
4882.000000	43.782947
4880.000000	43.842457
4878.000000	43.901147
4876.000000	43.959867
4874.000000	44.019661
4872.000000	44.078937
4870.000000	44.137874
4868.000000	44.196174
4866.000000	44.254844
4864.000000	44.313423
4862.000000	44.372135
4860.000000	44.430367
4858.000000	44.488598
4856.000000	44.546628
4854.000000	44.604603
4852.000000	44.662085
4850.000000	44.719880
4848.000000	44.776953
4846.000000	44.834099
4844.000000	44.892346
4842.000000	44.951692
4840.000000	45.009474
4838.000000	45.067317
4836.000000	45.125238
4834.000000	45.182706
4832.000000	45.239132
4830.000000	45.297465
4828.000000	45.356203
4826.000000	45.414060
4824.000000	45.471351
4822.000000	45.530530
4820.000000	45.590005
4818.000000	45.648838
4816.000000	45.706999
4814.000000	45.765874
4812.000000	45.825625
4810.000000	45.885363
4808.000000	45.943942
4806.000000	46.003372
4804.000000	46.063548
4802.000000	46.124544
4800.000000	46.185449
4798.000000	46.245788
4796.000000	46.304924
4794.000000	46.365904
4792.000000	46.427578
4790.000000	46.488469
4788.000000	46.548272
4786.000000	46.609144
4784.000000	46.670759
4782.000000	46.731981
4780.000000	46.791392
4778.000000	46.850584
4776.000000	46.909890
4774.000000	46.970544
4772.000000	47.031616
4770.000000	47.092226
4768.000000	47.151707
4766.000000	47.211754
4764.000000	47.270697
4762.000000	47.328776
4760.000000	47.386975
4758.000000	47.445950
4756.000000	47.503940
4754.000000	47.562584
4752.000000	47.621679
4750.000000	47.680250
4748.000000	47.737613
4746.000000	47.795638
4744.000000	47.853997
4742.000000	47.913208
4740.000000	47.972263
4738.000000	48.030309
4736.000000	48.087212
4734.000000	48.144766
4732.000000	48.202766
4730.000000	48.262139
4728.000000	48.322127
4726.000000	48.382047
4724.000000	48.440564
4722.000000	48.498863
4720.000000	48.557571
4718.000000	48.619050
4716.000000	48.682399
4714.000000	48.745500
4712.000000	48.807025
4710.000000	48.869731
4708.000000	48.933304
4706.000000	48.996380
4704.000000	49.058066
4702.000000	49.120994
4700.000000	49.185292
4698.000000	49.249675
4696.000000	49.311965
4694.000000	49.373269
4692.000000	49.434045
4690.000000	49.495591
4688.000000	49.557487
4686.000000	49.619527
4684.000000	49.680627
4682.000000	49.741449
4680.000000	49.802093
4678.000000	49.863711
4676.000000	49.925456
4674.000000	49.987587
4672.000000	50.049484
4670.000000	50.111980
4668.000000	50.173518
4666.000000	50.234398
4664.000000	50.294157
4662.000000	50.354602
4660.000000	50.415863
4658.000000	50.477819
4656.000000	50.538566
4654.000000	50.599763
4652.000000	50.661638
4650.000000	50.723363
4648.000000	50.783837
4646.000000	50.845036
4644.000000	50.906054
4642.000000	50.966372
4640.000000	51.027220
4638.000000	51.089905
4636.000000	51.151492
4634.000000	51.211959
4632.000000	51.272593
4630.000000	51.333902
4628.000000	51.395010
4626.000000	51.457181
4624.000000	51.518760
4622.000000	51.580863
4620.000000	51.643711
4618.000000	51.707431
4616.000000	51.769898
4614.000000	51.832927
4612.000000	51.896951
4610.000000	51.962495
4608.000000	52.027692
4606.000000	52.093166
4604.000000	52.158173
4602.000000	52.223153
4600.000000	52.287621
4598.000000	52.352176
4596.000000	52.415707
4594.000000	52.480593
4592.000000	52.546538
4590.000000	52.612206
4588.000000	52.675962
4586.000000	52.740090
4584.000000	52.804080
4582.000000	52.868369
4580.000000	52.932511
4578.000000	52.997343
4576.000000	53.062103
4574.000000	53.127393
4572.000000	53.191726
4570.000000	53.255458
4568.000000	53.318040
4566.000000	53.381070
4564.000000	53.444888
4562.000000	53.509634
4560.000000	53.572673
4558.000000	53.635116
4556.000000	53.697512
4554.000000	53.760313
4552.000000	53.822254
4550.000000	53.884991
4548.000000	53.947950
4546.000000	54.011239
4544.000000	54.073798
4542.000000	54.136240
4540.000000	54.197329
4538.000000	54.259684
4536.000000	54.323235
4534.000000	54.386698
4532.000000	54.449558
4530.000000	54.513974
4528.000000	54.577785
4526.000000	54.640468
4524.000000	54.703635
4522.000000	54.768148
4520.000000	54.831911
4518.000000	54.895800
4516.000000	54.960601
4514.000000	55.025857
4512.000000	55.091067
4510.000000	55.156977
4508.000000	55.222244
4506.000000	55.286876
4504.000000	55.351540
4502.000000	55.417716
4500.000000	55.483831
4498.000000	55.549558
4496.000000	55.615452
4494.000000	55.682670
4492.000000	55.748644
4490.000000	55.814143
4488.000000	55.879269
4486.000000	55.944056
4484.000000	56.007970
4482.000000	56.072908
4480.000000	56.137142
4478.000000	56.201163
4476.000000	56.264724
4474.000000	56.328199
4472.000000	56.391339
4470.000000	56.455180
4468.000000	56.518322
4466.000000	56.581866
4464.000000	56.644847
4462.000000	56.707494
4460.000000	56.769939
4458.000000	56.832428
4456.000000	56.893588
4454.000000	56.955036
4452.000000	57.016718
4450.000000	57.079144
4448.000000	57.141121
4446.000000	57.203243
4444.000000	57.265210
4442.000000	57.328207
4440.000000	57.391241
4438.000000	57.454414
4436.000000	57.517259
4434.000000	57.580971
4432.000000	57.644138
4430.000000	57.707712
4428.000000	57.771469
4426.000000	57.835196
4424.000000	57.898126
4422.000000	57.961689
4420.000000	58.025263
4418.000000	58.089376
4416.000000	58.153262
4414.000000	58.217827
4412.000000	58.282359
4410.000000	58.346856
4408.000000	58.410877
4406.000000	58.476067
4404.000000	58.540836
4402.000000	58.605152
4400.000000	58.668787
4398.000000	58.733143
4396.000000	58.797292
4394.000000	58.861055
4392.000000	58.923742
4390.000000	58.986958
4388.000000	59.049028
4386.000000	59.111057
4384.000000	59.173203
4382.000000	59.234992
4380.000000	59.295464
4378.000000	59.357067
4376.000000	59.418540
4374.000000	59.479033
4372.000000	59.538272
4370.000000	59.598429
4368.000000	59.658458
4366.000000	59.718796
4364.000000	59.778549
4362.000000	59.838965
4360.000000	59.900034
4358.000000	59.962073
4356.000000	60.024003
4354.000000	60.087189
4352.000000	60.150160
4350.000000	60.213654
4348.000000	60.277277
4346.000000	60.340604
4344.000000	60.404022
4342.000000	60.468551
4340.000000	60.530903
4338.000000	60.593150
4336.000000	60.657457
4334.000000	60.722716
4332.000000	60.786113
4330.000000	60.849877
4328.000000	60.914976
4326.000000	60.981244
4324.000000	61.046562
4322.000000	61.112172
4320.000000	61.178033
4318.000000	61.245455
4316.000000	61.314011
4314.000000	61.383447
4312.000000	61.450670
4310.000000	61.516769
4308.000000	61.582873
4306.000000	61.649825
4304.000000	61.716458
4302.000000	61.783995
4300.000000	61.850858
4298.000000	61.917386
4296.000000	61.982526
4294.000000	62.046963
4292.000000	62.110529
4290.000000	62.174304
4288.000000	62.237034
4286.000000	62.299381
4284.000000	62.360540
4282.000000	62.421281
4280.000000	62.480992
4278.000000	62.541205
4276.000000	62.600573
4274.000000	62.658668
4272.000000	62.716643
4270.000000	62.777627
4268.000000	62.838427
4266.000000	62.898528
4264.000000	62.958664
4262.000000	63.019728
4260.000000	63.080699
4258.000000	63.144091
4256.000000	63.208719
4254.000000	63.273415
4252.000000	63.336619
4250.000000	63.400334
4248.000000	63.464350
4246.000000	63.528723
4244.000000	63.592039
4242.000000	63.655230
4240.000000	63.718217
4238.000000	63.782690
4236.000000	63.847795
4234.000000	63.913889
4232.000000	63.979015
4230.000000	64.043463
4228.000000	64.107194
4226.000000	64.171649
4224.000000	64.236823
4222.000000	64.302896
4220.000000	64.366833
4218.000000	64.430309
4216.000000	64.494658
4214.000000	64.561010
4212.000000	64.627545
4210.000000	64.693362
4208.000000	64.757282
4206.000000	64.822901
4204.000000	64.890502
4202.000000	64.959146
4200.000000	65.027498
4198.000000	65.096018
4196.000000	65.163581
4194.000000	65.232172
4192.000000	65.300760
4190.000000	65.369590
4188.000000	65.437909
4186.000000	65.505640
4184.000000	65.571466
4182.000000	65.637328
4180.000000	65.703177
4178.000000	65.769436
4176.000000	65.835645
4174.000000	65.902116
4172.000000	65.966430
4170.000000	66.029656
4168.000000	66.092652
4166.000000	66.157066
4164.000000	66.221275
4162.000000	66.285049
4160.000000	66.348848
4158.000000	66.413786
4156.000000	66.478159
4154.000000	66.542808
4152.000000	66.606283
4150.000000	66.670516
4148.000000	66.736130
4146.000000	66.801677
4144.000000	66.866212
4142.000000	66.932082
4140.000000	66.997430
4138.000000	67.062922
4136.000000	67.128291
4134.000000	67.194754
4132.000000	67.261439
4130.000000	67.327578
4128.000000	67.393012
4126.000000	67.459954
4124.000000	67.526191
4122.000000	67.591802
4120.000000	67.656607
4118.000000	67.722661
4116.000000	67.789617
4114.000000	67.857214
4112.000000	67.923020
4110.000000	67.986832
4108.000000	68.049099
4106.000000	68.113793
4104.000000	68.179990
4102.000000	68.245300
4100.000000	68.308682
4098.000000	68.372519
4096.000000	68.436191
4094.000000	68.501513
4092.000000	68.566798
4090.000000	68.632606
4088.000000	68.701071
4086.000000	68.772141
4084.000000	68.841628
4082.000000	68.909243
4080.000000	68.975309
4078.000000	69.043045
4076.000000	69.111245
4074.000000	69.179062
4072.000000	69.245780
4070.000000	69.310644
4068.000000	69.373304
4066.000000	69.437526
4064.000000	69.501724
4062.000000	69.565970
4060.000000	69.631189
4058.000000	69.697170
4056.000000	69.761767
4054.000000	69.826603
4052.000000	69.891737
4050.000000	69.957430
4048.000000	70.019510
4046.000000	70.079126
4044.000000	70.142628
4042.000000	70.212675
4040.000000	70.282783
4038.000000	70.350178
4036.000000	70.415832
4034.000000	70.483005
4032.000000	70.550697
4030.000000	70.618361
4028.000000	70.682878
4026.000000	70.747263
4024.000000	70.816090
4022.000000	70.886057
4020.000000	70.953392
4018.000000	71.023039
4016.000000	71.093837
4014.000000	71.163582
4012.000000	71.229941
4010.000000	71.294340
4008.000000	71.362084
4006.000000	71.434967
4004.000000	71.506315
4002.000000	71.575124
4000.000000	71.642359
3998.000000	71.706291
3996.000000	71.766362
3994.000000	71.827986
3992.000000	71.891206
3990.000000	71.957776
3988.000000	72.027272
3986.000000	72.093764
3984.000000	72.154475
3982.000000	72.216457
3980.000000	72.279770
3978.000000	72.337809
3976.000000	72.391226
3974.000000	72.450364
3972.000000	72.515661
3970.000000	72.583575
3968.000000	72.652423
3966.000000	72.715232
3964.000000	72.763199
3962.000000	72.813142
3960.000000	72.878300
3958.000000	72.947736
3956.000000	73.010640
3954.000000	73.061308
3952.000000	73.088868
3950.000000	73.111914
3948.000000	73.169329
3946.000000	73.236835
3944.000000	73.279126
3942.000000	73.354620
3940.000000	73.473194
3938.000000	73.568024
3936.000000	73.595023
3934.000000	73.570619
3932.000000	73.595704
3930.000000	73.712287
3928.000000	73.812984
3926.000000	73.853845
3924.000000	73.904806
3922.000000	73.954226
3920.000000	73.945880
3918.000000	73.965229
3916.000000	74.116979
3914.000000	74.320516
3912.000000	74.452323
3910.000000	74.499734
3908.000000	74.406744
3906.000000	74.144723
3904.000000	73.922876
3902.000000	73.930507
3900.000000	74.158171
3898.000000	74.519909
3896.000000	74.781486
3894.000000	74.740565
3892.000000	74.632093
3890.000000	74.705925
3888.000000	74.689215
3886.000000	74.605648
3884.000000	74.751248
3882.000000	74.919381
3880.000000	75.062562
3878.000000	75.254297
3876.000000	75.292155
3874.000000	75.147981
3872.000000	74.876376
3870.000000	74.776883
3868.000000	75.006248
3866.000000	75.189373
3864.000000	75.314858
3862.000000	75.568231
3860.000000	75.776311
3858.000000	75.479948
3856.000000	74.433675
3854.000000	73.704667
3852.000000	74.348635
3850.000000	75.558001
3848.000000	76.218860
3846.000000	76.301775
3844.000000	76.176721
3842.000000	75.944431
3840.000000	75.515918
3838.000000	75.307655
3836.000000	75.678048
3834.000000	76.168706
3832.000000	76.464622
3830.000000	76.684631
3828.000000	76.818090
3826.000000	76.829537
3824.000000	76.588479
3822.000000	76.286113
3820.000000	76.288794
3818.000000	76.266287
3816.000000	76.333238
3814.000000	76.898998
3812.000000	77.394188
3810.000000	77.309995
3808.000000	76.992513
3806.000000	76.956052
3804.000000	76.856477
3802.000000	76.643357
3800.000000	76.945546
3798.000000	77.453058
3796.000000	77.756099
3794.000000	77.999437
3792.000000	78.169410
3790.000000	78.244153
3788.000000	78.266804
3786.000000	78.275579
3784.000000	78.304592
3782.000000	78.289674
3780.000000	78.267724
3778.000000	78.398145
3776.000000	78.587545
3774.000000	78.626159
3772.000000	78.472976
3770.000000	78.365683
3768.000000	78.452236
3766.000000	78.610600
3764.000000	78.757566
3762.000000	78.766372
3760.000000	78.688275
3758.000000	78.729916
3756.000000	78.629173
3754.000000	78.009356
3752.000000	77.330807
3750.000000	77.342942
3748.000000	77.606582
3746.000000	77.370091
3744.000000	77.535340
3742.000000	78.503769
3740.000000	79.014157
3738.000000	78.742953
3736.000000	78.477190
3734.000000	78.591960
3732.000000	78.986027
3730.000000	79.446824
3728.000000	79.645955
3726.000000	79.667514
3724.000000	79.739744
3722.000000	79.867244
3720.000000	80.034229
3718.000000	80.177666
3716.000000	80.107120
3714.000000	79.714859
3712.000000	79.450889
3710.000000	79.713936
3708.000000	80.204755
3706.000000	80.497914
3704.000000	80.495508
3702.000000	80.461400
3700.000000	80.615008
3698.000000	80.797040
3696.000000	80.850124
3694.000000	80.704863
3692.000000	80.259949
3690.000000	79.758040
3688.000000	79.883285
3686.000000	80.589093
3684.000000	81.070852
3682.000000	81.121300
3680.000000	80.867424
3678.000000	80.245612
3676.000000	79.788956
3674.000000	79.960668
3672.000000	80.089146
3670.000000	80.220721
3668.000000	80.811139
3666.000000	81.365650
3664.000000	81.573531
3662.000000	81.607343
3660.000000	81.499050
3658.000000	81.221858
3656.000000	81.113933
3654.000000	81.133096
3652.000000	80.723332
3650.000000	80.243307
3648.000000	80.461178
3646.000000	81.141484
3644.000000	81.621440
3642.000000	81.782699
3640.000000	81.823773
3638.000000	81.827538
3636.000000	81.781371
3634.000000	81.649100
3632.000000	81.210685
3630.000000	80.647590
3628.000000	80.783183
3626.000000	81.452010
3624.000000	81.781572
3622.000000	81.600964
3620.000000	81.331879
3618.000000	81.376211
3616.000000	81.531961
3614.000000	81.514279
3612.000000	81.412164
3610.000000	81.340977
3608.000000	81.462188
3606.000000	81.741713
3604.000000	81.898233
3602.000000	81.886776
3600.000000	81.849744
3598.000000	81.817054
3596.000000	81.772420
3594.000000	81.784530
3592.000000	81.768539
3590.000000	81.559515
3588.000000	81.389349
3586.000000	81.537282
3584.000000	81.793476
3582.000000	81.907252
3580.000000	81.917817
3578.000000	81.914999
3576.000000	81.914402
3574.000000	81.913048
3572.000000	81.848653
3570.000000	81.625019
3568.000000	81.400120
3566.000000	81.450570
3564.000000	81.660443
3562.000000	81.782855
3560.000000	81.822821
3558.000000	81.846644
3556.000000	81.834423
3554.000000	81.781091
3552.000000	81.751190
3550.000000	81.735694
3548.000000	81.664317
3546.000000	81.610866
3544.000000	81.656832
3542.000000	81.730833
3540.000000	81.749578
3538.000000	81.718848
3536.000000	81.693284
3534.000000	81.686161
3532.000000	81.649251
3530.000000	81.575086
3528.000000	81.507242
3526.000000	81.459896
3524.000000	81.426270
3522.000000	81.422383
3520.000000	81.425147
3518.000000	81.407573
3516.000000	81.377922
3514.000000	81.332963
3512.000000	81.266451
3510.000000	81.203714
3508.000000	81.165763
3506.000000	81.105509
3504.000000	81.015683
3502.000000	80.967911
3500.000000	80.953721
3498.000000	80.913586
3496.000000	80.857317
3494.000000	80.811895
3492.000000	80.763695
3490.000000	80.701093
3488.000000	80.641976
3486.000000	80.597918
3484.000000	80.550449
3482.000000	80.507827
3480.000000	80.495830
3478.000000	80.500077
3476.000000	80.499649
3474.000000	80.503028
3472.000000	80.511298
3470.000000	80.514293
3468.000000	80.523438
3466.000000	80.553548
3464.000000	80.591332
3462.000000	80.627866
3460.000000	80.669059
3458.000000	80.710375
3456.000000	80.746394
3454.000000	80.776811
3452.000000	80.796680
3450.000000	80.793445
3448.000000	80.782567
3446.000000	80.809868
3444.000000	80.866929
3442.000000	80.929434
3440.000000	81.004603
3438.000000	81.090964
3436.000000	81.189984
3434.000000	81.312049
3432.000000	81.452656
3430.000000	81.596514
3428.000000	81.740857
3426.000000	81.878811
3424.000000	81.996446
3422.000000	82.098968
3420.000000	82.210075
3418.000000	82.328480
3416.000000	82.430277
3414.000000	82.511601
3412.000000	82.583547
3410.000000	82.650090
3408.000000	82.711168
3406.000000	82.767625
3404.000000	82.816520
3402.000000	82.859926
3400.000000	82.915045
3398.000000	82.992334
3396.000000	83.074678
3394.000000	83.140472
3392.000000	83.205374
3390.000000	83.289254
3388.000000	83.370264
3386.000000	83.433347
3384.000000	83.492009
3382.000000	83.551428
3380.000000	83.606887
3378.000000	83.657874
3376.000000	83.707884
3374.000000	83.756090
3372.000000	83.792603
3370.000000	83.817874
3368.000000	83.854193
3366.000000	83.906800
3364.000000	83.961721
3362.000000	84.010878
3360.000000	84.056665
3358.000000	84.101046
3356.000000	84.144660
3354.000000	84.186983
3352.000000	84.225333
3350.000000	84.265567
3348.000000	84.313305
3346.000000	84.359159
3344.000000	84.398715
3342.000000	84.436906
3340.000000	84.471251
3338.000000	84.504330
3336.000000	84.547884
3334.000000	84.596419
3332.000000	84.640702
3330.000000	84.678428
3328.000000	84.711319
3326.000000	84.744262
3324.000000	84.782407
3322.000000	84.823427
3320.000000	84.862612
3318.000000	84.898796
3316.000000	84.932889
3314.000000	84.964878
3312.000000	84.994676
3310.000000	85.018214
3308.000000	85.037890
3306.000000	85.065011
3304.000000	85.111015
3302.000000	85.164987
3300.000000	85.208611
3298.000000	85.241761
3296.000000	85.271545
3294.000000	85.299191
3292.000000	85.331825
3290.000000	85.376668
3288.000000	85.423375
3286.000000	85.463905
3284.000000	85.502093
3282.000000	85.540087
3280.000000	85.576339
3278.000000	85.608267
3276.000000	85.639808
3274.000000	85.674472
3272.000000	85.712376
3270.000000	85.757833
3268.000000	85.809032
3266.000000	85.856191
3264.000000	85.899297
3262.000000	85.941762
3260.000000	85.984970
3258.000000	86.025926
3256.000000	86.066389
3254.000000	86.115179
3252.000000	86.170531
3250.000000	86.218513
3248.000000	86.257137
3246.000000	86.298379
3244.000000	86.353136
3242.000000	86.410353
3240.000000	86.462042
3238.000000	86.511108
3236.000000	86.555892
3234.000000	86.596150
3232.000000	86.645894
3230.000000	86.703554
3228.000000	86.758997
3226.000000	86.812702
3224.000000	86.862131
3222.000000	86.905722
3220.000000	86.949903
3218.000000	86.998698
3216.000000	87.047030
3214.000000	87.095732
3212.000000	87.148120
3210.000000	87.201189
3208.000000	87.260499
3206.000000	87.325404
3204.000000	87.393263
3202.000000	87.462667
3200.000000	87.530655
3198.000000	87.598828
3196.000000	87.675183
3194.000000	87.753255
3192.000000	87.827110
3190.000000	87.899441
3188.000000	87.970011
3186.000000	88.038443
3184.000000	88.109777
3182.000000	88.181767
3180.000000	88.249989
3178.000000	88.318918
3176.000000	88.395509
3174.000000	88.472622
3172.000000	88.546443
3170.000000	88.619329
3168.000000	88.694062
3166.000000	88.769427
3164.000000	88.846384
3162.000000	88.924173
3160.000000	89.002560
3158.000000	89.081165
3156.000000	89.158214
3154.000000	89.227497
3152.000000	89.299506
3150.000000	89.384905
3148.000000	89.470676
3146.000000	89.549461
3144.000000	89.624534
3142.000000	89.695168
3140.000000	89.763871
3138.000000	89.834794
3136.000000	89.906548
3134.000000	89.972619
3132.000000	90.040335
3130.000000	90.110014
3128.000000	90.175540
3126.000000	90.237009
3124.000000	90.293165
3122.000000	90.341305
3120.000000	90.387556
3118.000000	90.436629
3116.000000	90.493693
3114.000000	90.560820
3112.000000	90.624830
3110.000000	90.675310
3108.000000	90.726537
3106.000000	90.787720
3104.000000	90.848402
3102.000000	90.904609
3100.000000	90.967449
3098.000000	91.033904
3096.000000	91.099219
3094.000000	91.166358
3092.000000	91.231305
3090.000000	91.290914
3088.000000	91.348704
3086.000000	91.400002
3084.000000	91.445675
3082.000000	91.486475
3080.000000	91.522697
3078.000000	91.562393
3076.000000	91.608097
3074.000000	91.642629
3072.000000	91.660960
3070.000000	91.667360
3068.000000	91.669479
3066.000000	91.683511
3064.000000	91.721114
3062.000000	91.773898
3060.000000	91.829784
3058.000000	91.884483
3056.000000	91.945753
3054.000000	92.010919
3052.000000	92.068457
3050.000000	92.117474
3048.000000	92.166560
3046.000000	92.210155
3044.000000	92.240273
3042.000000	92.263427
3040.000000	92.289985
3038.000000	92.310657
3036.000000	92.318267
3034.000000	92.315018
3032.000000	92.303924
3030.000000	92.275540
3028.000000	92.211801
3026.000000	92.104826
3024.000000	91.975243
3022.000000	91.857344
3020.000000	91.791993
3018.000000	91.816656
3016.000000	91.952926
3014.000000	92.185356
3012.000000	92.472177
3010.000000	92.756116
3008.000000	92.989678
3006.000000	93.153754
3004.000000	93.267300
3002.000000	93.348878
3000.000000	93.406619
2998.000000	93.445702
2996.000000	93.475690
2994.000000	93.496322
2992.000000	93.507942
2990.000000	93.509112
2988.000000	93.495209
2986.000000	93.461986
2984.000000	93.403804
2982.000000	93.313805
2980.000000	93.191330
2978.000000	93.025556
2976.000000	92.798337
2974.000000	92.491698
2972.000000	92.097112
2970.000000	91.614085
2968.000000	91.087015
2966.000000	90.600976
2964.000000	90.243913
2962.000000	90.069451
2960.000000	90.081685
2958.000000	90.223843
2956.000000	90.418163
2954.000000	90.602932
2952.000000	90.746209
2950.000000	90.817044
2948.000000	90.781221
2946.000000	90.616251
2944.000000	90.321423
2942.000000	89.908882
2940.000000	89.415132
2938.000000	88.899619
2936.000000	88.424235
2934.000000	88.002753
2932.000000	87.603196
2930.000000	87.209116
2928.000000	86.877358
2926.000000	86.712362
2924.000000	86.820993
2922.000000	87.242085
2920.000000	87.919246
2918.000000	88.738012
2916.000000	89.592275
2914.000000	90.396324
2912.000000	91.092262
2910.000000	91.649777
2908.000000	92.083736
2906.000000	92.433179
2904.000000	92.735865
2902.000000	93.012462
2900.000000	93.270396
2898.000000	93.508976
2896.000000	93.734529
2894.000000	93.949657
2892.000000	94.153848
2890.000000	94.341964
2888.000000	94.505718
2886.000000	94.634844
2884.000000	94.724219
2882.000000	94.768061
2880.000000	94.765770
2878.000000	94.711212
2876.000000	94.597953
2874.000000	94.417203
2872.000000	94.162273
2870.000000	93.802352
2868.000000	93.314426
2866.000000	92.735971
2864.000000	92.190777
2862.000000	91.834955
2860.000000	91.758650
2858.000000	91.926788
2856.000000	92.231752
2854.000000	92.590700
2852.000000	93.003524
2850.000000	93.510975
2848.000000	94.117213
2846.000000	94.739939
2844.000000	95.284732
2842.000000	95.717460
2840.000000	96.056778
2838.000000	96.327488
2836.000000	96.550281
2834.000000	96.733736
2832.000000	96.890141
2830.000000	97.026044
2828.000000	97.148105
2826.000000	97.258495
2824.000000	97.359665
2822.000000	97.452673
2820.000000	97.539331
2818.000000	97.616370
2816.000000	97.686843
2814.000000	97.750817
2812.000000	97.809803
2810.000000	97.862387
2808.000000	97.913310
2806.000000	97.961128
2804.000000	98.006161
2802.000000	98.048692
2800.000000	98.091574
2798.000000	98.132062
2796.000000	98.173477
2794.000000	98.215782
2792.000000	98.261866
2790.000000	98.316656
2788.000000	98.387334
2786.000000	98.468226
2784.000000	98.552792
2782.000000	98.633931
2780.000000	98.708557
2778.000000	98.775203
2776.000000	98.836783
2774.000000	98.894310
2772.000000	98.950905
2770.000000	99.003520
2768.000000	99.054222
2766.000000	99.102498
2764.000000	99.150906
2762.000000	99.196651
2760.000000	99.241251
2758.000000	99.284173
2756.000000	99.327938
2754.000000	99.368415
2752.000000	99.408047
2750.000000	99.446125
2748.000000	99.483244
2746.000000	99.518161
2744.000000	99.554013
2742.000000	99.588021
2740.000000	99.621293
2738.000000	99.653780
2736.000000	99.688176
2734.000000	99.722542
2732.000000	99.756766
2730.000000	99.789458
2728.000000	99.822648
2726.000000	99.853076
2724.000000	99.883965
2722.000000	99.915092
2720.000000	99.948104
2718.000000	99.979146
2716.000000	100.008201
2714.000000	100.034024
2712.000000	100.060216
2710.000000	100.083540
2708.000000	100.106462
2706.000000	100.130108
2704.000000	100.159847
2702.000000	100.195877
2700.000000	100.239284
2698.000000	100.284947
2696.000000	100.332068
2694.000000	100.376631
2692.000000	100.419892
2690.000000	100.460414
2688.000000	100.500926
2686.000000	100.539908
2684.000000	100.578511
2682.000000	100.614667
2680.000000	100.651139
2678.000000	100.685216
2676.000000	100.718296
2674.000000	100.748691
2672.000000	100.778393
2670.000000	100.806905
2668.000000	100.836599
2666.000000	100.864628
2664.000000	100.893838
2662.000000	100.921211
2660.000000	100.950442
2658.000000	100.981143
2656.000000	101.014089
2654.000000	101.048403
2652.000000	101.087097
2650.000000	101.125894
2648.000000	101.166103
2646.000000	101.203810
2644.000000	101.242166
2642.000000	101.277924
2640.000000	101.313176
2638.000000	101.347334
2636.000000	101.381243
2634.000000	101.412834
2632.000000	101.444081
2630.000000	101.472810
2628.000000	101.501022
2626.000000	101.527875
2624.000000	101.556424
2622.000000	101.584035
2620.000000	101.612059
2618.000000	101.637751
2616.000000	101.663357
2614.000000	101.687036
2612.000000	101.711694
2610.000000	101.732773
2608.000000	101.751159
2606.000000	101.765793
2604.000000	101.781854
2602.000000	101.794678
2600.000000	101.804818
2598.000000	101.812544
2596.000000	101.822679
2594.000000	101.835544
2592.000000	101.858512
2590.000000	101.889911
2588.000000	101.932179
2586.000000	101.983113
2584.000000	102.041099
2582.000000	102.101259
2580.000000	102.163895
2578.000000	102.222135
2576.000000	102.276472
2574.000000	102.323146
2572.000000	102.366106
2570.000000	102.404510
2568.000000	102.441262
2566.000000	102.475107
2564.000000	102.508604
2562.000000	102.538553
2560.000000	102.567529
2558.000000	102.594362
2556.000000	102.621559
2554.000000	102.646761
2552.000000	102.673776
2550.000000	102.698792
2548.000000	102.724537
2546.000000	102.749621
2544.000000	102.775561
2542.000000	102.799816
2540.000000	102.825715
2538.000000	102.850355
2536.000000	102.878188
2534.000000	102.904912
2532.000000	102.930926
2530.000000	102.955568
2528.000000	102.981395
2526.000000	103.004703
2524.000000	103.029249
2522.000000	103.052323
2520.000000	103.076060
2518.000000	103.097826
2516.000000	103.121023
2514.000000	103.143341
2512.000000	103.166932
2510.000000	103.188037
2508.000000	103.209665
2506.000000	103.229014
2504.000000	103.249507
2502.000000	103.269979
2500.000000	103.292536
2498.000000	103.315504
2496.000000	103.341958
2494.000000	103.366857
2492.000000	103.393082
2490.000000	103.418405
2488.000000	103.445725
2486.000000	103.470447
2484.000000	103.496176
2482.000000	103.521240
2480.000000	103.546824
2478.000000	103.567900
2476.000000	103.590478
2474.000000	103.611563
2472.000000	103.632800
2470.000000	103.650499
2468.000000	103.668161
2466.000000	103.683688
2464.000000	103.700973
2462.000000	103.716460
2460.000000	103.732132
2458.000000	103.746318
2456.000000	103.763078
2454.000000	103.778748
2452.000000	103.796327
2450.000000	103.813271
2448.000000	103.829914
2446.000000	103.843532
2444.000000	103.860682
2442.000000	103.875315
2440.000000	103.888990
2438.000000	103.902272
2436.000000	103.918069
2434.000000	103.930882
2432.000000	103.943067
2430.000000	103.951484
2428.000000	103.961109
2426.000000	103.972961
2424.000000	103.990875
2422.000000	104.006838
2420.000000	104.020590
2418.000000	104.032010
2416.000000	104.045022
2414.000000	104.055041
2412.000000	104.067367
2410.000000	104.078593
2408.000000	104.090745
2406.000000	104.102258
2404.000000	104.117926
2402.000000	104.132955
2400.000000	104.148828
2398.000000	104.163934
2396.000000	104.181802
2394.000000	104.198309
2392.000000	104.216311
2390.000000	104.230582
2388.000000	104.243317
2386.000000	104.245537
2384.000000	104.234136
2382.000000	104.196529
2380.000000	104.125097
2378.000000	104.006172
2376.000000	103.839354
2374.000000	103.623736
2372.000000	103.372429
2370.000000	103.103946
2368.000000	102.850202
2366.000000	102.637487
2364.000000	102.497963
2362.000000	102.450656
2360.000000	102.508452
2358.000000	102.670323
2356.000000	102.932452
2354.000000	103.272296
2352.000000	103.651755
2350.000000	103.926986
2348.000000	103.912330
2346.000000	103.664075
2344.000000	103.400673
2342.000000	103.209914
2340.000000	103.100056
2338.000000	103.051362
2336.000000	103.050840
2334.000000	103.083083
2332.000000	103.147403
2330.000000	103.239206
2328.000000	103.354335
2326.000000	103.479618
2324.000000	103.610435
2322.000000	103.737773
2320.000000	103.861749
2318.000000	103.973960
2316.000000	104.074849
2314.000000	104.163059
2312.000000	104.242431
2310.000000	104.306362
2308.000000	104.360895
2306.000000	104.403208
2304.000000	104.440500
2302.000000	104.470512
2300.000000	104.496963
2298.000000	104.518288
2296.000000	104.539089
2294.000000	104.553477
2292.000000	104.568523
2290.000000	104.580199
2288.000000	104.591305
2286.000000	104.599864
2284.000000	104.607476
2282.000000	104.607641
2280.000000	104.604850
2278.000000	104.598294
2276.000000	104.594545
2274.000000	104.588825
2272.000000	104.584409
2270.000000	104.577010
2268.000000	104.571155
2266.000000	104.564603
2264.000000	104.562143
2262.000000	104.558831
2260.000000	104.558315
2258.000000	104.555556
2256.000000	104.556276
2254.000000	104.556186
2252.000000	104.560041
2250.000000	104.564768
2248.000000	104.574119
2246.000000	104.582705
2244.000000	104.593928
2242.000000	104.603478
2240.000000	104.617013
2238.000000	104.629413
2236.000000	104.644361
2234.000000	104.657206
2232.000000	104.671659
2230.000000	104.683431
2228.000000	104.697272
2226.000000	104.707475
2224.000000	104.718732
2222.000000	104.726091
2220.000000	104.734991
2218.000000	104.741565
2216.000000	104.749371
2214.000000	104.752536
2212.000000	104.757872
2210.000000	104.761297
2208.000000	104.766481
2206.000000	104.768979
2204.000000	104.774974
2202.000000	104.778709
2200.000000	104.784702
2198.000000	104.787716
2196.000000	104.791280
2194.000000	104.791051
2192.000000	104.792747
2190.000000	104.792127
2188.000000	104.794187
2186.000000	104.793417
2184.000000	104.793782
2182.000000	104.789621
2180.000000	104.789031
2178.000000	104.786392
2176.000000	104.784430
2174.000000	104.775260
2172.000000	104.752795
2170.000000	104.725673
2168.000000	104.736871
2166.000000	104.758908
2164.000000	104.768006
2162.000000	104.768003
2160.000000	104.768570
2158.000000	104.764553
2156.000000	104.765293
2154.000000	104.762220
2152.000000	104.759918
2150.000000	104.755916
2148.000000	104.756121
2146.000000	104.756028
2144.000000	104.759007
2142.000000	104.754979
2140.000000	104.751163
2138.000000	104.745268
2136.000000	104.744475
2134.000000	104.744114
2132.000000	104.744745
2130.000000	104.742334
2128.000000	104.742515
2126.000000	104.740306
2124.000000	104.740568
2122.000000	104.740661
2120.000000	104.744401
2118.000000	104.745497
2116.000000	104.748103
2114.000000	104.753370
2112.000000	104.764158
2110.000000	104.772473
2108.000000	104.785985
2106.000000	104.799698
2104.000000	104.814258
2102.000000	104.823457
2100.000000	104.835933
2098.000000	104.847108
2096.000000	104.861308
2094.000000	104.872448
2092.000000	104.883644
2090.000000	104.890368
2088.000000	104.909412
2086.000000	104.925782
2084.000000	104.944515
2082.000000	104.957519
2080.000000	104.973800
2078.000000	104.988223
2076.000000	105.006981
2074.000000	105.020258
2072.000000	105.040646
2070.000000	105.058557
2068.000000	105.072629
2066.000000	105.075790
2064.000000	105.099257
2062.000000	105.131114
2060.000000	105.158047
2058.000000	105.177907
2056.000000	105.200075
2054.000000	105.219297
2052.000000	105.242848
2050.000000	105.262639
2048.000000	105.284245
2046.000000	105.298087
2044.000000	105.310990
2042.000000	105.318083
2040.000000	105.341517
2038.000000	105.364457
2036.000000	105.380149
2034.000000	105.387167
2032.000000	105.387385
2030.000000	105.368902
2028.000000	105.379663
2026.000000	105.414154
2024.000000	105.438054
2022.000000	105.445992
2020.000000	105.439730
2018.000000	105.420054
2016.000000	105.445933
2014.000000	105.494591
2012.000000	105.524711
2010.000000	105.537638
2008.000000	105.554123
2006.000000	105.568228
2004.000000	105.580502
2002.000000	105.583648
2000.000000	105.586505
1998.000000	105.589229
1996.000000	105.590126
1994.000000	105.534773
1992.000000	105.486621
1990.000000	105.524262
1988.000000	105.565927
1986.000000	105.581151
1984.000000	105.584144
1982.000000	105.573161
1980.000000	105.562261
1978.000000	105.546443
1976.000000	105.530958
1974.000000	105.514019
1972.000000	105.497346
1970.000000	105.450851
1968.000000	105.378877
1966.000000	105.362450
1964.000000	105.383035
1962.000000	105.331001
1960.000000	105.210768
1958.000000	105.178695
1956.000000	105.256711
1954.000000	105.284241
1952.000000	105.269937
1950.000000	105.235715
1948.000000	105.206370
1946.000000	105.146066
1944.000000	105.026752
1942.000000	104.980139
1940.000000	105.078244
1938.000000	105.112546
1936.000000	105.094520
1934.000000	105.063125
1932.000000	105.039101
1930.000000	105.008638
1928.000000	104.980902
1926.000000	104.913389
1924.000000	104.797323
1922.000000	104.734076
1920.000000	104.616246
1918.000000	104.461357
1916.000000	104.594495
1914.000000	104.691029
1912.000000	104.628610
1910.000000	104.524212
1908.000000	104.488459
1906.000000	104.470322
1904.000000	104.435865
1902.000000	104.381536
1900.000000	104.338426
1898.000000	104.266885
1896.000000	104.185405
1894.000000	104.149907
1892.000000	104.088354
1890.000000	103.952867
1888.000000	104.007928
1886.000000	104.089675
1884.000000	104.093152
1882.000000	104.076809
1880.000000	104.061718
1878.000000	104.032589
1876.000000	104.015473
1874.000000	103.972727
1872.000000	103.792523
1870.000000	103.426379
1868.000000	103.390296
1866.000000	103.656057
1864.000000	103.797403
1862.000000	103.785467
1860.000000	103.753732
1858.000000	103.720123
1856.000000	103.700821
1854.000000	103.662069
1852.000000	103.624014
1850.000000	103.533880
1848.000000	103.351412
1846.000000	102.838752
1844.000000	102.528945
1842.000000	102.979832
1840.000000	103.289591
1838.000000	103.238395
1836.000000	103.187796
1834.000000	103.111977
1832.000000	102.799438
1830.000000	102.483870
1828.000000	102.564070
1826.000000	102.530784
1824.000000	102.561028
1822.000000	102.717339
1820.000000	102.709021
1818.000000	102.612910
1816.000000	102.554648
1814.000000	102.455218
1812.000000	102.261519
1810.000000	102.147192
1808.000000	102.156923
1806.000000	102.100071
1804.000000	101.903349
1802.000000	101.585913
1800.000000	101.441567
1798.000000	101.479098
1796.000000	101.344835
1794.000000	100.726003
1792.000000	100.391104
1790.000000	100.800294
1788.000000	101.032491
1786.000000	100.803600
1784.000000	100.656892
1782.000000	100.571621
1780.000000	100.471993
1778.000000	100.434879
1776.000000	100.113000
1774.000000	99.222984
1772.000000	98.787683
1770.000000	99.224125
1768.000000	99.479945
1766.000000	99.739390
1764.000000	99.578094
1762.000000	99.169941
1760.000000	99.232014
1758.000000	99.165481
1756.000000	99.035935
1754.000000	98.815922
1752.000000	98.041447
1750.000000	97.802926
1748.000000	98.074728
1746.000000	98.182891
1744.000000	98.045509
1742.000000	97.676842
1740.000000	97.313074
1738.000000	97.294677
1736.000000	96.319445
1734.000000	95.319799
1732.000000	96.292154
1730.000000	97.220732
1728.000000	97.464379
1726.000000	97.471278
1724.000000	97.364831
1722.000000	97.174708
1720.000000	96.231153
1718.000000	94.920045
1716.000000	95.183924
1714.000000	96.176990
1712.000000	96.682204
1710.000000	96.642957
1708.000000	96.287912
1706.000000	95.842871
1704.000000	95.607907
1702.000000	94.379029
1700.000000	93.467418
1698.000000	93.818561
1696.000000	93.733060
1694.000000	94.897263
1692.000000	95.922546
1690.000000	95.860464
1688.000000	95.350138
1686.000000	93.678134
1684.000000	93.044801
1682.000000	94.557311
1680.000000	95.436575
1678.000000	95.256831
1676.000000	94.545058
1674.000000	94.553031
1672.000000	94.631324
1670.000000	94.193450
1668.000000	94.480442
1666.000000	94.899395
1664.000000	94.550830
1662.000000	94.382010
1660.000000	94.677701
1658.000000	94.586176
1656.000000	93.198947
1654.000000	90.610126
1652.000000	90.817758
1650.000000	92.879908
1648.000000	92.755205
1646.000000	92.395751
1644.000000	93.194595
1642.000000	93.667198
1640.000000	93.420423
1638.000000	92.470715
1636.000000	91.360007
1634.000000	91.879078
1632.000000	92.726501
1630.000000	92.572827
1628.000000	92.139057
1626.000000	91.709353
1624.000000	91.060043
1622.000000	90.769957
1620.000000	90.410424
1618.000000	89.104491
1616.000000	88.560840
1614.000000	89.068590
1612.000000	88.795443
1610.000000	88.153152
1608.000000	87.826725
1606.000000	87.877511
1604.000000	88.074677
1602.000000	88.322809
1600.000000	88.571755
1598.000000	88.778805
1596.000000	88.912036
1594.000000	89.026314
1592.000000	89.104709
1590.000000	89.115997
1588.000000	89.083750
1586.000000	89.019200
1584.000000	88.942442
1582.000000	88.886194
1580.000000	88.691996
1578.000000	87.671353
1576.000000	86.952606
1574.000000	87.895972
1572.000000	88.201845
1570.000000	87.675903
1568.000000	87.778013
1566.000000	87.904754
1564.000000	87.578484
1562.000000	86.204883
1560.000000	83.927387
1558.000000	83.967784
1556.000000	85.603327
1554.000000	86.494721
1552.000000	87.167494
1550.000000	87.532966
1548.000000	87.719708
1546.000000	87.495257
1544.000000	86.947183
1542.000000	86.004398
1540.000000	85.477910
1538.000000	86.934360
1536.000000	88.374420
1534.000000	88.375947
1532.000000	88.738386
1530.000000	89.113766
1528.000000	88.877555
1526.000000	88.514577
1524.000000	88.065852
1522.000000	87.226505
1520.000000	87.397460
1518.000000	87.886897
1516.000000	87.933486
1514.000000	87.983250
1512.000000	87.771117
1510.000000	87.115679
1508.000000	85.445468
1506.000000	84.663179
1504.000000	85.478184
1502.000000	85.000001
1500.000000	82.459831
1498.000000	78.977880
1496.000000	76.451909
1494.000000	76.268195
1492.000000	77.349450
1490.000000	78.979523
1488.000000	80.983210
1486.000000	82.714388
1484.000000	83.852403
1482.000000	84.365110
1480.000000	84.599274
1478.000000	84.454871
1476.000000	83.952444
1474.000000	83.209893
1472.000000	83.035309
1470.000000	83.576567
1468.000000	83.543367
1466.000000	82.826864
1464.000000	82.433572
1462.000000	82.275117
1460.000000	81.140427
1458.000000	79.053109
1456.000000	78.073602
1454.000000	78.210396
1452.000000	77.915073
1450.000000	77.964321
1448.000000	78.744202
1446.000000	79.783460
1444.000000	80.330445
1442.000000	80.456922
1440.000000	80.284257
1438.000000	79.645438
1436.000000	79.558772
1434.000000	80.266651
1432.000000	80.422355
1430.000000	80.330243
1428.000000	80.399509
1426.000000	80.421891
1424.000000	80.275583
1422.000000	79.948340
1420.000000	79.196911
1418.000000	79.195097
1416.000000	79.618863
1414.000000	79.595792
1412.000000	79.246774
1410.000000	78.724696
1408.000000	77.958909
1406.000000	77.089929
1404.000000	76.618182
1402.000000	76.650027
1400.000000	76.789660
1398.000000	77.183115
1396.000000	77.522685
1394.000000	77.861682
1392.000000	78.322687
1390.000000	78.328581
1388.000000	77.906742
1386.000000	77.677012
1384.000000	77.688187
1382.000000	77.814060
1380.000000	77.901796
1378.000000	77.830401
1376.000000	77.623254
1374.000000	77.455344
1372.000000	77.475872
1370.000000	77.413469
1368.000000	77.259455
1366.000000	77.092942
1364.000000	76.792655
1362.000000	76.581305
1360.000000	76.553530
1358.000000	76.470667
1356.000000	76.280267
1354.000000	76.076169
1352.000000	75.873388
1350.000000	75.655666
1348.000000	75.438154
1346.000000	75.214401
1344.000000	74.962971
1342.000000	74.654831
1340.000000	74.351941
1338.000000	74.223898
1336.000000	74.192493
1334.000000	74.123238
1332.000000	73.978396
1330.000000	73.788575
1328.000000	73.566026
1326.000000	73.323003
1324.000000	73.057222
1322.000000	72.767354
1320.000000	72.445815
1318.000000	72.142178
1316.000000	71.855333
1314.000000	71.548012
1312.000000	71.237702
1310.000000	70.933221
1308.000000	70.609118
1306.000000	70.280868
1304.000000	69.941119
1302.000000	69.598395
1300.000000	69.252053
1298.000000	68.903956
1296.000000	68.547108
1294.000000	68.181979
1292.000000	67.797734
1290.000000	67.400931
1288.000000	66.996000
1286.000000	66.597879
1284.000000	66.187215
1282.000000	65.756619
1280.000000	65.298507
1278.000000	64.810975
1276.000000	64.271980
1274.000000	63.655608
1272.000000	62.923179
1270.000000	62.037736
1268.000000	60.933464
1266.000000	59.612792
1264.000000	58.238142
1262.000000	57.134785
1260.000000	56.583455
1258.000000	56.591596
1256.000000	56.882980
1254.000000	57.127706
1252.000000	57.123961
1250.000000	56.881751
1248.000000	56.483789
1246.000000	56.011328
1244.000000	55.504110
1242.000000	54.988683
1240.000000	54.477332
1238.000000	53.985516
1236.000000	53.508275
1234.000000	53.044443
1232.000000	52.589382
1230.000000	52.143218
1228.000000	51.695837
1226.000000	51.244554
1224.000000	50.783166
1222.000000	50.311156
1220.000000	49.818332
1218.000000	49.307202
1216.000000	48.784200
1214.000000	48.268156
1212.000000	47.773043
1210.000000	47.319155
1208.000000	46.901077
1206.000000	46.502871
1204.000000	46.104581
1202.000000	45.706297
1200.000000	45.310543
1198.000000	44.921637
1196.000000	44.528451
1194.000000	44.123287
1192.000000	43.704573
1190.000000	43.275322
1188.000000	42.830352
1186.000000	42.359533
1184.000000	41.777352
1182.000000	41.048704
1180.000000	40.480576
1178.000000	40.232173
1176.000000	39.998931
1174.000000	39.640659
1172.000000	39.212955
1170.000000	38.764747
1168.000000	38.299586
1166.000000	37.824275
1164.000000	37.351696
1162.000000	36.890114
1160.000000	36.433073
1158.000000	35.996945
1156.000000	35.574931
1154.000000	35.155646
1152.000000	34.730196
1150.000000	34.309124
1148.000000	33.877179
1146.000000	33.437549
1144.000000	33.008590
1142.000000	32.631692
1140.000000	32.320008
1138.000000	32.006925
1136.000000	31.646004
1134.000000	31.251953
1132.000000	30.835134
1130.000000	30.409848
1128.000000	29.987615
1126.000000	29.568468
1124.000000	29.139366
1122.000000	28.701568
1120.000000	28.252186
1118.000000	27.793711
1116.000000	27.327542
1114.000000	26.860227
1112.000000	26.393162
1110.000000	25.930610
1108.000000	25.473623
1106.000000	25.036074
1104.000000	24.618464
1102.000000	24.208926
1100.000000	23.796718
1098.000000	23.388886
1096.000000	22.989692
1094.000000	22.606869
1092.000000	22.239151
1090.000000	21.887481
1088.000000	21.544828
1086.000000	21.206519
1084.000000	20.859317
1082.000000	20.500397
1080.000000	20.160998
1078.000000	19.857521
1076.000000	19.579869
1074.000000	19.344916
1072.000000	19.129892
1070.000000	18.907275
1068.000000	18.677535
1066.000000	18.448064
1064.000000	18.215369
1062.000000	17.981445
1060.000000	17.734791
1058.000000	17.447201
1056.000000	17.058861
1054.000000	16.545309
1052.000000	16.036439
1050.000000	15.738599
1048.000000	15.703683
1046.000000	15.783739
1044.000000	15.786375
1042.000000	15.673111
1040.000000	15.489311
1038.000000	15.275657
1036.000000	15.047023
1034.000000	14.808633
1032.000000	14.559282
1030.000000	14.301815
1028.000000	14.036969
1026.000000	13.768530
1024.000000	13.496877
1022.000000	13.227818
1020.000000	12.971681
1018.000000	12.738958
1016.000000	12.525525
1014.000000	12.335423
1012.000000	12.165899
1010.000000	12.005271
1008.000000	11.838789
1006.000000	11.661840
1004.000000	11.465753
1002.000000	11.251206
1000.000000	11.024359
