Created as New Dataset,Sample 029 By Administrator Date Monday, February 10 2020
cm-1,A
6000.00,1.2108
5999.00,1.2109
5998.00,1.2109
5997.00,1.2109
5996.00,1.2110
5995.00,1.2111
5994.00,1.2111
5993.00,1.2111
5992.00,1.2111
5991.00,1.2111
5990.00,1.2110
5989.00,1.2110
5988.00,1.2110
5987.00,1.2111
5986.00,1.2111
5985.00,1.2110
5984.00,1.2108
5983.00,1.2105
5982.00,1.2103
5981.00,1.2100
5980.00,1.2099
5979.00,1.2100
5978.00,1.2100
5977.00,1.2101
5976.00,1.2101
5975.00,1.2101
5974.00,1.2101
5973.00,1.2100
5972.00,1.2100
5971.00,1.2100
5970.00,1.2101
5969.00,1.2101
5968.00,1.2102
5967.00,1.2102
5966.00,1.2101
5965.00,1.2100
5964.00,1.2100
5963.00,1.2101
5962.00,1.2102
5961.00,1.2104
5960.00,1.2105
5959.00,1.2106
5958.00,1.2105
5957.00,1.2105
5956.00,1.2104
5955.00,1.2103
5954.00,1.2102
5953.00,1.2100
5952.00,1.2099
5951.00,1.2098
5950.00,1.2096
5949.00,1.2095
5948.00,1.2095
5947.00,1.2095
5946.00,1.2095
5945.00,1.2094
5944.00,1.2092
5943.00,1.2091
5942.00,1.2091
5941.00,1.2091
5940.00,1.2092
5939.00,1.2092
5938.00,1.2092
5937.00,1.2092
5936.00,1.2090
5935.00,1.2089
5934.00,1.2087
5933.00,1.2087
5932.00,1.2087
5931.00,1.2089
5930.00,1.2090
5929.00,1.2091
5928.00,1.2091
5927.00,1.2090
5926.00,1.2089
5925.00,1.2089
5924.00,1.2089
5923.00,1.2090
5922.00,1.2091
5921.00,1.2092
5920.00,1.2094
5919.00,1.2095
5918.00,1.2095
5917.00,1.2094
5916.00,1.2092
5915.00,1.2091
5914.00,1.2090
5913.00,1.2089
5912.00,1.2087
5911.00,1.2086
5910.00,1.2085
5909.00,1.2085
5908.00,1.2085
5907.00,1.2086
5906.00,1.2086
5905.00,1.2087
5904.00,1.2087
5903.00,1.2086
5902.00,1.2084
5901.00,1.2082
5900.00,1.2082
5899.00,1.2082
5898.00,1.2084
5897.00,1.2085
5896.00,1.2087
5895.00,1.2089
5894.00,1.2089
5893.00,1.2088
5892.00,1.2087
5891.00,1.2086
5890.00,1.2085
5889.00,1.2085
5888.00,1.2084
5887.00,1.2084
5886.00,1.2083
5885.00,1.2082
5884.00,1.2080
5883.00,1.2077
5882.00,1.2075
5881.00,1.2073
5880.00,1.2073
5879.00,1.2073
5878.00,1.2073
5877.00,1.2074
5876.00,1.2075
5875.00,1.2077
5874.00,1.2077
5873.00,1.2077
5872.00,1.2076
5871.00,1.2076
5870.00,1.2075
5869.00,1.2074
5868.00,1.2073
5867.00,1.2072
5866.00,1.2072
5865.00,1.2073
5864.00,1.2074
5863.00,1.2075
5862.00,1.2075
5861.00,1.2076
5860.00,1.2077
5859.00,1.2077
5858.00,1.2076
5857.00,1.2074
5856.00,1.2072
5855.00,1.2071
5854.00,1.2071
5853.00,1.2071
5852.00,1.2071
5851.00,1.2072
5850.00,1.2073
5849.00,1.2074
5848.00,1.2075
5847.00,1.2074
5846.00,1.2073
5845.00,1.2073
5844.00,1.2073
5843.00,1.2073
5842.00,1.2072
5841.00,1.2072
5840.00,1.2071
5839.00,1.2072
5838.00,1.2072
5837.00,1.2072
5836.00,1.2072
5835.00,1.2072
5834.00,1.2072
5833.00,1.2072
5832.00,1.2072
5831.00,1.2072
5830.00,1.2072
5829.00,1.2072
5828.00,1.2072
5827.00,1.2072
5826.00,1.2073
5825.00,1.2073
5824.00,1.2073
5823.00,1.2072
5822.00,1.2071
5821.00,1.2070
5820.00,1.2069
5819.00,1.2069
5818.00,1.2069
5817.00,1.2070
5816.00,1.2071
5815.00,1.2073
5814.00,1.2075
5813.00,1.2075
5812.00,1.2074
5811.00,1.2073
5810.00,1.2071
5809.00,1.2069
5808.00,1.2068
5807.00,1.2068
5806.00,1.2069
5805.00,1.2070
5804.00,1.2071
5803.00,1.2073
5802.00,1.2074
5801.00,1.2074
5800.00,1.2072
5799.00,1.2071
5798.00,1.2069
5797.00,1.2066
5796.00,1.2064
5795.00,1.2063
5794.00,1.2063
5793.00,1.2063
5792.00,1.2065
5791.00,1.2066
5790.00,1.2066
5789.00,1.2064
5788.00,1.2063
5787.00,1.2062
5786.00,1.2061
5785.00,1.2060
5784.00,1.2061
5783.00,1.2062
5782.00,1.2064
5781.00,1.2064
5780.00,1.2065
5779.00,1.2066
5778.00,1.2067
5777.00,1.2067
5776.00,1.2067
5775.00,1.2067
5774.00,1.2065
5773.00,1.2064
5772.00,1.2062
5771.00,1.2060
5770.00,1.2059
5769.00,1.2058
5768.00,1.2059
5767.00,1.2059
5766.00,1.2058
5765.00,1.2057
5764.00,1.2056
5763.00,1.2056
5762.00,1.2056
5761.00,1.2056
5760.00,1.2056
5759.00,1.2057
5758.00,1.2057
5757.00,1.2056
5756.00,1.2055
5755.00,1.2054
5754.00,1.2054
5753.00,1.2053
5752.00,1.2053
5751.00,1.2053
5750.00,1.2054
5749.00,1.2053
5748.00,1.2051
5747.00,1.2050
5746.00,1.2049
5745.00,1.2049
5744.00,1.2050
5743.00,1.2051
5742.00,1.2053
5741.00,1.2054
5740.00,1.2055
5739.00,1.2056
5738.00,1.2056
5737.00,1.2055
5736.00,1.2054
5735.00,1.2053
5734.00,1.2052
5733.00,1.2052
5732.00,1.2052
5731.00,1.2053
5730.00,1.2054
5729.00,1.2055
5728.00,1.2054
5727.00,1.2053
5726.00,1.2052
5725.00,1.2050
5724.00,1.2049
5723.00,1.2049
5722.00,1.2050
5721.00,1.2050
5720.00,1.2051
5719.00,1.2052
5718.00,1.2053
5717.00,1.2054
5716.00,1.2055
5715.00,1.2055
5714.00,1.2055
5713.00,1.2056
5712.00,1.2055
5711.00,1.2054
5710.00,1.2052
5709.00,1.2051
5708.00,1.2050
5707.00,1.2050
5706.00,1.2050
5705.00,1.2049
5704.00,1.2050
5703.00,1.2050
5702.00,1.2050
5701.00,1.2049
5700.00,1.2047
5699.00,1.2046
5698.00,1.2046
5697.00,1.2046
5696.00,1.2046
5695.00,1.2047
5694.00,1.2048
5693.00,1.2047
5692.00,1.2047
5691.00,1.2046
5690.00,1.2046
5689.00,1.2045
5688.00,1.2045
5687.00,1.2046
5686.00,1.2046
5685.00,1.2046
5684.00,1.2045
5683.00,1.2045
5682.00,1.2045
5681.00,1.2044
5680.00,1.2044
5679.00,1.2044
5678.00,1.2044
5677.00,1.2043
5676.00,1.2043
5675.00,1.2043
5674.00,1.2044
5673.00,1.2044
5672.00,1.2045
5671.00,1.2045
5670.00,1.2044
5669.00,1.2043
5668.00,1.2042
5667.00,1.2041
5666.00,1.2039
5665.00,1.2037
5664.00,1.2036
5663.00,1.2037
5662.00,1.2037
5661.00,1.2038
5660.00,1.2039
5659.00,1.2040
5658.00,1.2039
5657.00,1.2038
5656.00,1.2038
5655.00,1.2038
5654.00,1.2038
5653.00,1.2039
5652.00,1.2039
5651.00,1.2040
5650.00,1.2041
5649.00,1.2041
5648.00,1.2041
5647.00,1.2041
5646.00,1.2042
5645.00,1.2042
5644.00,1.2042
5643.00,1.2041
5642.00,1.2040
5641.00,1.2039
5640.00,1.2037
5639.00,1.2037
5638.00,1.2037
5637.00,1.2037
5636.00,1.2038
5635.00,1.2038
5634.00,1.2039
5633.00,1.2037
5632.00,1.2036
5631.00,1.2034
5630.00,1.2032
5629.00,1.2031
5628.00,1.2031
5627.00,1.2031
5626.00,1.2032
5625.00,1.2032
5624.00,1.2031
5623.00,1.2031
5622.00,1.2031
5621.00,1.2031
5620.00,1.2031
5619.00,1.2030
5618.00,1.2030
5617.00,1.2030
5616.00,1.2030
5615.00,1.2031
5614.00,1.2032
5613.00,1.2034
5612.00,1.2035
5611.00,1.2035
5610.00,1.2034
5609.00,1.2032
5608.00,1.2031
5607.00,1.2031
5606.00,1.2031
5605.00,1.2031
5604.00,1.2031
5603.00,1.2030
5602.00,1.2030
5601.00,1.2029
5600.00,1.2029
5599.00,1.2029
5598.00,1.2029
5597.00,1.2029
5596.00,1.2029
5595.00,1.2028
5594.00,1.2026
5593.00,1.2024
5592.00,1.2024
5591.00,1.2024
5590.00,1.2026
5589.00,1.2027
5588.00,1.2029
5587.00,1.2029
5586.00,1.2029
5585.00,1.2027
5584.00,1.2026
5583.00,1.2024
5582.00,1.2023
5581.00,1.2022
5580.00,1.2021
5579.00,1.2021
5578.00,1.2021
5577.00,1.2022
5576.00,1.2023
5575.00,1.2024
5574.00,1.2025
5573.00,1.2025
5572.00,1.2024
5571.00,1.2023
5570.00,1.2022
5569.00,1.2021
5568.00,1.2021
5567.00,1.2021
5566.00,1.2021
5565.00,1.2020
5564.00,1.2020
5563.00,1.2019
5562.00,1.2019
5561.00,1.2020
5560.00,1.2021
5559.00,1.2023
5558.00,1.2023
5557.00,1.2023
5556.00,1.2022
5555.00,1.2022
5554.00,1.2021
5553.00,1.2020
5552.00,1.2019
5551.00,1.2019
5550.00,1.2018
5549.00,1.2018
5548.00,1.2018
5547.00,1.2018
5546.00,1.2018
5545.00,1.2018
5544.00,1.2018
5543.00,1.2018
5542.00,1.2018
5541.00,1.2016
5540.00,1.2016
5539.00,1.2016
5538.00,1.2015
5537.00,1.2015
5536.00,1.2014
5535.00,1.2014
5534.00,1.2014
5533.00,1.2014
5532.00,1.2014
5531.00,1.2015
5530.00,1.2015
5529.00,1.2015
5528.00,1.2015
5527.00,1.2015
5526.00,1.2015
5525.00,1.2015
5524.00,1.2014
5523.00,1.2014
5522.00,1.2013
5521.00,1.2011
5520.00,1.2010
5519.00,1.2009
5518.00,1.2009
5517.00,1.2009
5516.00,1.2010
5515.00,1.2010
5514.00,1.2010
5513.00,1.2010
5512.00,1.2010
5511.00,1.2010
5510.00,1.2010
5509.00,1.2010
5508.00,1.2011
5507.00,1.2012
5506.00,1.2013
5505.00,1.2013
5504.00,1.2013
5503.00,1.2012
5502.00,1.2010
5501.00,1.2008
5500.00,1.2006
5499.00,1.2006
5498.00,1.2006
5497.00,1.2007
5496.00,1.2008
5495.00,1.2008
5494.00,1.2007
5493.00,1.2007
5492.00,1.2007
5491.00,1.2007
5490.00,1.2007
5489.00,1.2007
5488.00,1.2005
5487.00,1.2004
5486.00,1.2003
5485.00,1.2002
5484.00,1.2003
5483.00,1.2004
5482.00,1.2006
5481.00,1.2007
5480.00,1.2009
5479.00,1.2010
5478.00,1.2009
5477.00,1.2007
5476.00,1.2004
5475.00,1.2002
5474.00,1.2000
5473.00,1.2000
5472.00,1.2000
5471.00,1.2001
5470.00,1.2001
5469.00,1.2002
5468.00,1.2001
5467.00,1.2001
5466.00,1.1999
5465.00,1.1997
5464.00,1.1996
5463.00,1.1996
5462.00,1.1995
5461.00,1.1995
5460.00,1.1996
5459.00,1.1997
5458.00,1.1997
5457.00,1.1997
5456.00,1.1998
5455.00,1.1999
5454.00,1.1999
5453.00,1.2000
5452.00,1.1999
5451.00,1.1998
5450.00,1.1997
5449.00,1.1995
5448.00,1.1994
5447.00,1.1993
5446.00,1.1991
5445.00,1.1991
5444.00,1.1991
5443.00,1.1990
5442.00,1.1989
5441.00,1.1989
5440.00,1.1989
5439.00,1.1990
5438.00,1.1991
5437.00,1.1991
5436.00,1.1991
5435.00,1.1991
5434.00,1.1991
5433.00,1.1991
5432.00,1.1991
5431.00,1.1991
5430.00,1.1990
5429.00,1.1989
5428.00,1.1988
5427.00,1.1988
5426.00,1.1988
5425.00,1.1988
5424.00,1.1989
5423.00,1.1991
5422.00,1.1992
5421.00,1.1992
5420.00,1.1992
5419.00,1.1991
5418.00,1.1990
5417.00,1.1988
5416.00,1.1986
5415.00,1.1985
5414.00,1.1984
5413.00,1.1983
5412.00,1.1983
5411.00,1.1983
5410.00,1.1984
5409.00,1.1984
5408.00,1.1986
5407.00,1.1987
5406.00,1.1989
5405.00,1.1990
5404.00,1.1991
5403.00,1.1991
5402.00,1.1990
5401.00,1.1989
5400.00,1.1987
5399.00,1.1986
5398.00,1.1985
5397.00,1.1984
5396.00,1.1983
5395.00,1.1982
5394.00,1.1981
5393.00,1.1981
5392.00,1.1980
5391.00,1.1980
5390.00,1.1980
5389.00,1.1980
5388.00,1.1979
5387.00,1.1979
5386.00,1.1979
5385.00,1.1980
5384.00,1.1981
5383.00,1.1981
5382.00,1.1981
5381.00,1.1980
5380.00,1.1979
5379.00,1.1978
5378.00,1.1977
5377.00,1.1976
5376.00,1.1977
5375.00,1.1977
5374.00,1.1978
5373.00,1.1977
5372.00,1.1977
5371.00,1.1977
5370.00,1.1978
5369.00,1.1978
5368.00,1.1978
5367.00,1.1978
5366.00,1.1978
5365.00,1.1977
5364.00,1.1977
5363.00,1.1978
5362.00,1.1979
5361.00,1.1980
5360.00,1.1982
5359.00,1.1982
5358.00,1.1981
5357.00,1.1979
5356.00,1.1977
5355.00,1.1975
5354.00,1.1974
5353.00,1.1973
5352.00,1.1972
5351.00,1.1972
5350.00,1.1971
5349.00,1.1970
5348.00,1.1970
5347.00,1.1971
5346.00,1.1971
5345.00,1.1970
5344.00,1.1969
5343.00,1.1969
5342.00,1.1969
5341.00,1.1969
5340.00,1.1968
5339.00,1.1968
5338.00,1.1969
5337.00,1.1970
5336.00,1.1972
5335.00,1.1974
5334.00,1.1975
5333.00,1.1974
5332.00,1.1973
5331.00,1.1972
5330.00,1.1971
5329.00,1.1971
5328.00,1.1971
5327.00,1.1971
5326.00,1.1973
5325.00,1.1974
5324.00,1.1975
5323.00,1.1976
5322.00,1.1976
5321.00,1.1977
5320.00,1.1977
5319.00,1.1977
5318.00,1.1976
5317.00,1.1975
5316.00,1.1974
5315.00,1.1973
5314.00,1.1973
5313.00,1.1973
5312.00,1.1973
5311.00,1.1974
5310.00,1.1975
5309.00,1.1975
5308.00,1.1975
5307.00,1.1975
5306.00,1.1975
5305.00,1.1974
5304.00,1.1973
5303.00,1.1972
5302.00,1.1972
5301.00,1.1972
5300.00,1.1971
5299.00,1.1972
5298.00,1.1972
5297.00,1.1973
5296.00,1.1973
5295.00,1.1973
5294.00,1.1974
5293.00,1.1974
5292.00,1.1973
5291.00,1.1971
5290.00,1.1970
5289.00,1.1970
5288.00,1.1971
5287.00,1.1971
5286.00,1.1972
5285.00,1.1972
5284.00,1.1972
5283.00,1.1973
5282.00,1.1973
5281.00,1.1973
5280.00,1.1973
5279.00,1.1974
5278.00,1.1974
5277.00,1.1975
5276.00,1.1976
5275.00,1.1977
5274.00,1.1978
5273.00,1.1979
5272.00,1.1978
5271.00,1.1977
5270.00,1.1975
5269.00,1.1973
5268.00,1.1972
5267.00,1.1971
5266.00,1.1971
5265.00,1.1971
5264.00,1.1971
5263.00,1.1972
5262.00,1.1973
5261.00,1.1974
5260.00,1.1974
5259.00,1.1975
5258.00,1.1975
5257.00,1.1975
5256.00,1.1975
5255.00,1.1974
5254.00,1.1973
5253.00,1.1973
5252.00,1.1974
5251.00,1.1975
5250.00,1.1975
5249.00,1.1975
5248.00,1.1975
5247.00,1.1974
5246.00,1.1974
5245.00,1.1973
5244.00,1.1974
5243.00,1.1975
5242.00,1.1976
5241.00,1.1978
5240.00,1.1979
5239.00,1.1980
5238.00,1.1981
5237.00,1.1982
5236.00,1.1983
5235.00,1.1984
5234.00,1.1983
5233.00,1.1983
5232.00,1.1982
5231.00,1.1981
5230.00,1.1981
5229.00,1.1981
5228.00,1.1982
5227.00,1.1982
5226.00,1.1983
5225.00,1.1983
5224.00,1.1984
5223.00,1.1986
5222.00,1.1986
5221.00,1.1986
5220.00,1.1987
5219.00,1.1987
5218.00,1.1988
5217.00,1.1988
5216.00,1.1989
5215.00,1.1989
5214.00,1.1989
5213.00,1.1989
5212.00,1.1989
5211.00,1.1990
5210.00,1.1990
5209.00,1.1990
5208.00,1.1990
5207.00,1.1990
5206.00,1.1990
5205.00,1.1990
5204.00,1.1991
5203.00,1.1992
5202.00,1.1993
5201.00,1.1993
5200.00,1.1994
5199.00,1.1994
5198.00,1.1995
5197.00,1.1995
5196.00,1.1996
5195.00,1.1997
5194.00,1.1997
5193.00,1.1998
5192.00,1.1998
5191.00,1.1999
5190.00,1.1999
5189.00,1.1998
5188.00,1.1998
5187.00,1.1998
5186.00,1.1998
5185.00,1.1998
5184.00,1.1998
5183.00,1.1999
5182.00,1.1999
5181.00,1.2000
5180.00,1.2000
5179.00,1.2001
5178.00,1.2002
5177.00,1.2002
5176.00,1.2001
5175.00,1.2001
5174.00,1.2002
5173.00,1.2003
5172.00,1.2005
5171.00,1.2007
5170.00,1.2007
5169.00,1.2008
5168.00,1.2008
5167.00,1.2008
5166.00,1.2008
5165.00,1.2008
5164.00,1.2008
5163.00,1.2009
5162.00,1.2009
5161.00,1.2009
5160.00,1.2010
5159.00,1.2011
5158.00,1.2012
5157.00,1.2012
5156.00,1.2013
5155.00,1.2012
5154.00,1.2012
5153.00,1.2011
5152.00,1.2012
5151.00,1.2013
5150.00,1.2014
5149.00,1.2015
5148.00,1.2016
5147.00,1.2017
5146.00,1.2018
5145.00,1.2019
5144.00,1.2019
5143.00,1.2020
5142.00,1.2019
5141.00,1.2019
5140.00,1.2018
5139.00,1.2018
5138.00,1.2018
5137.00,1.2017
5136.00,1.2017
5135.00,1.2016
5134.00,1.2016
5133.00,1.2016
5132.00,1.2017
5131.00,1.2019
5130.00,1.2021
5129.00,1.2022
5128.00,1.2022
5127.00,1.2022
5126.00,1.2021
5125.00,1.2020
5124.00,1.2020
5123.00,1.2020
5122.00,1.2020
5121.00,1.2019
5120.00,1.2019
5119.00,1.2018
5118.00,1.2018
5117.00,1.2018
5116.00,1.2018
5115.00,1.2019
5114.00,1.2019
5113.00,1.2019
5112.00,1.2019
5111.00,1.2019
5110.00,1.2020
5109.00,1.2021
5108.00,1.2022
5107.00,1.2022
5106.00,1.2022
5105.00,1.2021
5104.00,1.2020
5103.00,1.2019
5102.00,1.2018
5101.00,1.2018
5100.00,1.2017
5099.00,1.2018
5098.00,1.2018
5097.00,1.2018
5096.00,1.2019
5095.00,1.2019
5094.00,1.2019
5093.00,1.2019
5092.00,1.2019
5091.00,1.2019
5090.00,1.2019
5089.00,1.2019
5088.00,1.2019
5087.00,1.2019
5086.00,1.2020
5085.00,1.2020
5084.00,1.2019
5083.00,1.2019
5082.00,1.2018
5081.00,1.2017
5080.00,1.2016
5079.00,1.2016
5078.00,1.2016
5077.00,1.2015
5076.00,1.2015
5075.00,1.2014
5074.00,1.2015
5073.00,1.2015
5072.00,1.2015
5071.00,1.2016
5070.00,1.2017
5069.00,1.2017
5068.00,1.2018
5067.00,1.2019
5066.00,1.2019
5065.00,1.2019
5064.00,1.2019
5063.00,1.2018
5062.00,1.2017
5061.00,1.2016
5060.00,1.2015
5059.00,1.2015
5058.00,1.2015
5057.00,1.2014
5056.00,1.2014
5055.00,1.2014
5054.00,1.2014
5053.00,1.2014
5052.00,1.2014
5051.00,1.2014
5050.00,1.2014
5049.00,1.2014
5048.00,1.2014
5047.00,1.2015
5046.00,1.2015
5045.00,1.2014
5044.00,1.2014
5043.00,1.2013
5042.00,1.2012
5041.00,1.2012
5040.00,1.2013
5039.00,1.2013
5038.00,1.2014
5037.00,1.2013
5036.00,1.2013
5035.00,1.2012
5034.00,1.2011
5033.00,1.2010
5032.00,1.2010
5031.00,1.2010
5030.00,1.2010
5029.00,1.2010
5028.00,1.2010
5027.00,1.2011
5026.00,1.2011
5025.00,1.2011
5024.00,1.2010
5023.00,1.2010
5022.00,1.2009
5021.00,1.2009
5020.00,1.2009
5019.00,1.2009
5018.00,1.2009
5017.00,1.2008
5016.00,1.2008
5015.00,1.2007
5014.00,1.2007
5013.00,1.2007
5012.00,1.2007
5011.00,1.2007
5010.00,1.2007
5009.00,1.2007
5008.00,1.2006
5007.00,1.2006
5006.00,1.2006
5005.00,1.2005
5004.00,1.2005
5003.00,1.2004
5002.00,1.2003
5001.00,1.2002
5000.00,1.2001
4999.00,1.2001
4998.00,1.2000
4997.00,1.2000
4996.00,1.1999
4995.00,1.1999
4994.00,1.1999
4993.00,1.1999
4992.00,1.1999
4991.00,1.1999
4990.00,1.1999
4989.00,1.1998
4988.00,1.1999
4987.00,1.1999
4986.00,1.1999
4985.00,1.1998
4984.00,1.1998
4983.00,1.1997
4982.00,1.1997
4981.00,1.1997
4980.00,1.1997
4979.00,1.1998
4978.00,1.1998
4977.00,1.1998
4976.00,1.1997
4975.00,1.1996
4974.00,1.1996
4973.00,1.1995
4972.00,1.1995
4971.00,1.1994
4970.00,1.1994
4969.00,1.1994
4968.00,1.1994
4967.00,1.1994
4966.00,1.1993
4965.00,1.1992
4964.00,1.1992
4963.00,1.1992
4962.00,1.1992
4961.00,1.1993
4960.00,1.1992
4959.00,1.1992
4958.00,1.1992
4957.00,1.1991
4956.00,1.1991
4955.00,1.1991
4954.00,1.1990
4953.00,1.1990
4952.00,1.1989
4951.00,1.1989
4950.00,1.1988
4949.00,1.1988
4948.00,1.1987
4947.00,1.1987
4946.00,1.1987
4945.00,1.1987
4944.00,1.1987
4943.00,1.1987
4942.00,1.1987
4941.00,1.1986
4940.00,1.1985
4939.00,1.1985
4938.00,1.1985
4937.00,1.1985
4936.00,1.1985
4935.00,1.1985
4934.00,1.1985
4933.00,1.1984
4932.00,1.1983
4931.00,1.1983
4930.00,1.1982
4929.00,1.1981
4928.00,1.1981
4927.00,1.1981
4926.00,1.1981
4925.00,1.1981
4924.00,1.1981
4923.00,1.1981
4922.00,1.1980
4921.00,1.1979
4920.00,1.1978
4919.00,1.1977
4918.00,1.1977
4917.00,1.1977
4916.00,1.1977
4915.00,1.1978
4914.00,1.1978
4913.00,1.1977
4912.00,1.1976
4911.00,1.1975
4910.00,1.1975
4909.00,1.1974
4908.00,1.1974
4907.00,1.1975
4906.00,1.1974
4905.00,1.1973
4904.00,1.1972
4903.00,1.1971
4902.00,1.1971
4901.00,1.1970
4900.00,1.1970
4899.00,1.1970
4898.00,1.1970
4897.00,1.1969
4896.00,1.1968
4895.00,1.1967
4894.00,1.1967
4893.00,1.1966
4892.00,1.1966
4891.00,1.1966
4890.00,1.1965
4889.00,1.1964
4888.00,1.1964
4887.00,1.1964
4886.00,1.1964
4885.00,1.1964
4884.00,1.1964
4883.00,1.1965
4882.00,1.1964
4881.00,1.1964
4880.00,1.1964
4879.00,1.1963
4878.00,1.1963
4877.00,1.1963
4876.00,1.1962
4875.00,1.1962
4874.00,1.1961
4873.00,1.1960
4872.00,1.1959
4871.00,1.1959
4870.00,1.1958
4869.00,1.1958
4868.00,1.1957
4867.00,1.1956
4866.00,1.1955
4865.00,1.1954
4864.00,1.1953
4863.00,1.1953
4862.00,1.1954
4861.00,1.1954
4860.00,1.1954
4859.00,1.1954
4858.00,1.1953
4857.00,1.1953
4856.00,1.1952
4855.00,1.1952
4854.00,1.1953
4853.00,1.1953
4852.00,1.1954
4851.00,1.1954
4850.00,1.1953
4849.00,1.1952
4848.00,1.1952
4847.00,1.1951
4846.00,1.1950
4845.00,1.1949
4844.00,1.1948
4843.00,1.1946
4842.00,1.1945
4841.00,1.1944
4840.00,1.1944
4839.00,1.1944
4838.00,1.1944
4837.00,1.1943
4836.00,1.1943
4835.00,1.1943
4834.00,1.1943
4833.00,1.1942
4832.00,1.1942
4831.00,1.1942
4830.00,1.1942
4829.00,1.1942
4828.00,1.1942
4827.00,1.1942
4826.00,1.1942
4825.00,1.1941
4824.00,1.1940
4823.00,1.1939
4822.00,1.1938
4821.00,1.1937
4820.00,1.1936
4819.00,1.1936
4818.00,1.1935
4817.00,1.1935
4816.00,1.1934
4815.00,1.1934
4814.00,1.1934
4813.00,1.1933
4812.00,1.1933
4811.00,1.1932
4810.00,1.1932
4809.00,1.1932
4808.00,1.1932
4807.00,1.1932
4806.00,1.1931
4805.00,1.1931
4804.00,1.1931
4803.00,1.1930
4802.00,1.1930
4801.00,1.1929
4800.00,1.1928
4799.00,1.1928
4798.00,1.1927
4797.00,1.1926
4796.00,1.1926
4795.00,1.1925
4794.00,1.1925
4793.00,1.1924
4792.00,1.1924
4791.00,1.1923
4790.00,1.1923
4789.00,1.1922
4788.00,1.1920
4787.00,1.1919
4786.00,1.1918
4785.00,1.1917
4784.00,1.1917
4783.00,1.1917
4782.00,1.1917
4781.00,1.1917
4780.00,1.1917
4779.00,1.1917
4778.00,1.1916
4777.00,1.1915
4776.00,1.1914
4775.00,1.1913
4774.00,1.1913
4773.00,1.1912
4772.00,1.1912
4771.00,1.1912
4770.00,1.1912
4769.00,1.1911
4768.00,1.1911
4767.00,1.1910
4766.00,1.1910
4765.00,1.1909
4764.00,1.1909
4763.00,1.1908
4762.00,1.1907
4761.00,1.1907
4760.00,1.1906
4759.00,1.1905
4758.00,1.1904
4757.00,1.1903
4756.00,1.1902
4755.00,1.1900
4754.00,1.1899
4753.00,1.1898
4752.00,1.1897
4751.00,1.1896
4750.00,1.1896
4749.00,1.1895
4748.00,1.1894
4747.00,1.1894
4746.00,1.1893
4745.00,1.1892
4744.00,1.1891
4743.00,1.1890
4742.00,1.1889
4741.00,1.1888
4740.00,1.1888
4739.00,1.1887
4738.00,1.1886
4737.00,1.1885
4736.00,1.1884
4735.00,1.1883
4734.00,1.1882
4733.00,1.1882
4732.00,1.1882
4731.00,1.1882
4730.00,1.1882
4729.00,1.1882
4728.00,1.1881
4727.00,1.1880
4726.00,1.1879
4725.00,1.1878
4724.00,1.1877
4723.00,1.1876
4722.00,1.1875
4721.00,1.1874
4720.00,1.1874
4719.00,1.1874
4718.00,1.1875
4717.00,1.1875
4716.00,1.1875
4715.00,1.1875
4714.00,1.1875
4713.00,1.1874
4712.00,1.1873
4711.00,1.1873
4710.00,1.1872
4709.00,1.1872
4708.00,1.1872
4707.00,1.1873
4706.00,1.1873
4705.00,1.1873
4704.00,1.1873
4703.00,1.1873
4702.00,1.1872
4701.00,1.1872
4700.00,1.1872
4699.00,1.1872
4698.00,1.1872
4697.00,1.1871
4696.00,1.1870
4695.00,1.1870
4694.00,1.1869
4693.00,1.1868
4692.00,1.1868
4691.00,1.1867
4690.00,1.1865
4689.00,1.1864
4688.00,1.1863
4687.00,1.1862
4686.00,1.1862
4685.00,1.1862
4684.00,1.1862
4683.00,1.1862
4682.00,1.1861
4681.00,1.1861
4680.00,1.1861
4679.00,1.1860
4678.00,1.1860
4677.00,1.1860
4676.00,1.1860
4675.00,1.1859
4674.00,1.1858
4673.00,1.1857
4672.00,1.1857
4671.00,1.1857
4670.00,1.1857
4669.00,1.1857
4668.00,1.1857
4667.00,1.1858
4666.00,1.1857
4665.00,1.1857
4664.00,1.1856
4663.00,1.1855
4662.00,1.1855
4661.00,1.1855
4660.00,1.1855
4659.00,1.1855
4658.00,1.1855
4657.00,1.1854
4656.00,1.1853
4655.00,1.1853
4654.00,1.1853
4653.00,1.1852
4652.00,1.1852
4651.00,1.1852
4650.00,1.1852
4649.00,1.1851
4648.00,1.1851
4647.00,1.1851
4646.00,1.1852
4645.00,1.1851
4644.00,1.1851
4643.00,1.1851
4642.00,1.1850
4641.00,1.1850
4640.00,1.1849
4639.00,1.1849
4638.00,1.1850
4637.00,1.1850
4636.00,1.1850
4635.00,1.1851
4634.00,1.1851
4633.00,1.1850
4632.00,1.1850
4631.00,1.1850
4630.00,1.1850
4629.00,1.1850
4628.00,1.1850
4627.00,1.1849
4626.00,1.1849
4625.00,1.1849
4624.00,1.1849
4623.00,1.1849
4622.00,1.1848
4621.00,1.1848
4620.00,1.1847
4619.00,1.1847
4618.00,1.1847
4617.00,1.1847
4616.00,1.1847
4615.00,1.1847
4614.00,1.1846
4613.00,1.1846
4612.00,1.1845
4611.00,1.1845
4610.00,1.1845
4609.00,1.1845
4608.00,1.1845
4607.00,1.1845
4606.00,1.1845
4605.00,1.1845
4604.00,1.1845
4603.00,1.1845
4602.00,1.1844
4601.00,1.1844
4600.00,1.1844
4599.00,1.1843
4598.00,1.1843
4597.00,1.1843
4596.00,1.1842
4595.00,1.1843
4594.00,1.1842
4593.00,1.1842
4592.00,1.1842
4591.00,1.1841
4590.00,1.1841
4589.00,1.1840
4588.00,1.1840
4587.00,1.1840
4586.00,1.1840
4585.00,1.1840
4584.00,1.1839
4583.00,1.1839
4582.00,1.1839
4581.00,1.1838
4580.00,1.1838
4579.00,1.1837
4578.00,1.1837
4577.00,1.1836
4576.00,1.1836
4575.00,1.1836
4574.00,1.1835
4573.00,1.1835
4572.00,1.1836
4571.00,1.1836
4570.00,1.1837
4569.00,1.1837
4568.00,1.1838
4567.00,1.1838
4566.00,1.1838
4565.00,1.1838
4564.00,1.1837
4563.00,1.1836
4562.00,1.1836
4561.00,1.1835
4560.00,1.1835
4559.00,1.1834
4558.00,1.1834
4557.00,1.1833
4556.00,1.1833
4555.00,1.1834
4554.00,1.1834
4553.00,1.1833
4552.00,1.1833
4551.00,1.1833
4550.00,1.1833
4549.00,1.1832
4548.00,1.1831
4547.00,1.1831
4546.00,1.1830
4545.00,1.1830
4544.00,1.1829
4543.00,1.1829
4542.00,1.1829
4541.00,1.1828
4540.00,1.1828
4539.00,1.1828
4538.00,1.1828
4537.00,1.1828
4536.00,1.1827
4535.00,1.1826
4534.00,1.1826
4533.00,1.1825
4532.00,1.1825
4531.00,1.1826
4530.00,1.1826
4529.00,1.1826
4528.00,1.1826
4527.00,1.1826
4526.00,1.1826
4525.00,1.1825
4524.00,1.1824
4523.00,1.1824
4522.00,1.1824
4521.00,1.1823
4520.00,1.1823
4519.00,1.1823
4518.00,1.1823
4517.00,1.1822
4516.00,1.1822
4515.00,1.1821
4514.00,1.1821
4513.00,1.1822
4512.00,1.1822
4511.00,1.1822
4510.00,1.1822
4509.00,1.1821
4508.00,1.1820
4507.00,1.1819
4506.00,1.1819
4505.00,1.1818
4504.00,1.1818
4503.00,1.1818
4502.00,1.1818
4501.00,1.1818
4500.00,1.1818
4499.00,1.1818
4498.00,1.1818
4497.00,1.1818
4496.00,1.1817
4495.00,1.1817
4494.00,1.1817
4493.00,1.1818
4492.00,1.1818
4491.00,1.1818
4490.00,1.1818
4489.00,1.1817
4488.00,1.1816
4487.00,1.1815
4486.00,1.1815
4485.00,1.1815
4484.00,1.1815
4483.00,1.1815
4482.00,1.1815
4481.00,1.1815
4480.00,1.1815
4479.00,1.1815
4478.00,1.1814
4477.00,1.1814
4476.00,1.1814
4475.00,1.1814
4474.00,1.1814
4473.00,1.1815
4472.00,1.1815
4471.00,1.1815
4470.00,1.1814
4469.00,1.1813
4468.00,1.1812
4467.00,1.1812
4466.00,1.1812
4465.00,1.1812
4464.00,1.1812
4463.00,1.1812
4462.00,1.1812
4461.00,1.1812
4460.00,1.1811
4459.00,1.1811
4458.00,1.1811
4457.00,1.1810
4456.00,1.1809
4455.00,1.1809
4454.00,1.1809
4453.00,1.1809
4452.00,1.1809
4451.00,1.1809
4450.00,1.1809
4449.00,1.1808
4448.00,1.1808
4447.00,1.1808
4446.00,1.1808
4445.00,1.1807
4444.00,1.1807
4443.00,1.1807
4442.00,1.1807
4441.00,1.1807
4440.00,1.1806
4439.00,1.1806
4438.00,1.1805
4437.00,1.1805
4436.00,1.1805
4435.00,1.1805
4434.00,1.1805
4433.00,1.1805
4432.00,1.1805
4431.00,1.1804
4430.00,1.1804
4429.00,1.1804
4428.00,1.1804
4427.00,1.1804
4426.00,1.1805
4425.00,1.1805
4424.00,1.1804
4423.00,1.1804
4422.00,1.1804
4421.00,1.1804
4420.00,1.1803
4419.00,1.1802
4418.00,1.1802
4417.00,1.1802
4416.00,1.1802
4415.00,1.1802
4414.00,1.1802
4413.00,1.1802
4412.00,1.1801
4411.00,1.1801
4410.00,1.1800
4409.00,1.1800
4408.00,1.1799
4407.00,1.1800
4406.00,1.1800
4405.00,1.1800
4404.00,1.1801
4403.00,1.1801
4402.00,1.1801
4401.00,1.1801
4400.00,1.1800
4399.00,1.1800
4398.00,1.1800
4397.00,1.1799
4396.00,1.1799
4395.00,1.1798
4394.00,1.1798
4393.00,1.1798
4392.00,1.1798
4391.00,1.1799
4390.00,1.1799
4389.00,1.1799
4388.00,1.1799
4387.00,1.1799
4386.00,1.1799
4385.00,1.1799
4384.00,1.1799
4383.00,1.1799
4382.00,1.1798
4381.00,1.1797
4380.00,1.1797
4379.00,1.1797
4378.00,1.1798
4377.00,1.1798
4376.00,1.1798
4375.00,1.1798
4374.00,1.1799
4373.00,1.1799
4372.00,1.1799
4371.00,1.1798
4370.00,1.1798
4369.00,1.1797
4368.00,1.1798
4367.00,1.1798
4366.00,1.1798
4365.00,1.1798
4364.00,1.1798
4363.00,1.1797
4362.00,1.1797
4361.00,1.1798
4360.00,1.1798
4359.00,1.1798
4358.00,1.1798
4357.00,1.1797
4356.00,1.1797
4355.00,1.1797
4354.00,1.1796
4353.00,1.1796
4352.00,1.1796
4351.00,1.1797
4350.00,1.1797
4349.00,1.1797
4348.00,1.1798
4347.00,1.1798
4346.00,1.1797
4345.00,1.1797
4344.00,1.1796
4343.00,1.1796
4342.00,1.1796
4341.00,1.1796
4340.00,1.1796
4339.00,1.1795
4338.00,1.1795
4337.00,1.1794
4336.00,1.1794
4335.00,1.1795
4334.00,1.1795
4333.00,1.1795
4332.00,1.1795
4331.00,1.1795
4330.00,1.1796
4329.00,1.1796
4328.00,1.1797
4327.00,1.1797
4326.00,1.1797
4325.00,1.1797
4324.00,1.1796
4323.00,1.1796
4322.00,1.1796
4321.00,1.1795
4320.00,1.1795
4319.00,1.1795
4318.00,1.1795
4317.00,1.1795
4316.00,1.1795
4315.00,1.1795
4314.00,1.1795
4313.00,1.1794
4312.00,1.1794
4311.00,1.1794
4310.00,1.1793
4309.00,1.1793
4308.00,1.1793
4307.00,1.1793
4306.00,1.1793
4305.00,1.1793
4304.00,1.1793
4303.00,1.1792
4302.00,1.1792
4301.00,1.1791
4300.00,1.1791
4299.00,1.1791
4298.00,1.1791
4297.00,1.1791
4296.00,1.1792
4295.00,1.1792
4294.00,1.1792
4293.00,1.1792
4292.00,1.1792
4291.00,1.1792
4290.00,1.1792
4289.00,1.1792
4288.00,1.1792
4287.00,1.1792
4286.00,1.1792
4285.00,1.1793
4284.00,1.1793
4283.00,1.1793
4282.00,1.1793
4281.00,1.1793
4280.00,1.1793
4279.00,1.1794
4278.00,1.1793
4277.00,1.1793
4276.00,1.1793
4275.00,1.1793
4274.00,1.1792
4273.00,1.1792
4272.00,1.1792
4271.00,1.1792
4270.00,1.1793
4269.00,1.1793
4268.00,1.1793
4267.00,1.1793
4266.00,1.1793
4265.00,1.1793
4264.00,1.1793
4263.00,1.1793
4262.00,1.1793
4261.00,1.1792
4260.00,1.1792
4259.00,1.1792
4258.00,1.1792
4257.00,1.1792
4256.00,1.1792
4255.00,1.1792
4254.00,1.1792
4253.00,1.1792
4252.00,1.1792
4251.00,1.1791
4250.00,1.1791
4249.00,1.1791
4248.00,1.1790
4247.00,1.1790
4246.00,1.1790
4245.00,1.1790
4244.00,1.1790
4243.00,1.1790
4242.00,1.1789
4241.00,1.1789
4240.00,1.1789
4239.00,1.1789
4238.00,1.1789
4237.00,1.1789
4236.00,1.1789
4235.00,1.1789
4234.00,1.1789
4233.00,1.1789
4232.00,1.1789
4231.00,1.1788
4230.00,1.1788
4229.00,1.1787
4228.00,1.1787
4227.00,1.1787
4226.00,1.1787
4225.00,1.1787
4224.00,1.1787
4223.00,1.1786
4222.00,1.1786
4221.00,1.1786
4220.00,1.1786
4219.00,1.1786
4218.00,1.1786
4217.00,1.1786
4216.00,1.1786
4215.00,1.1786
4214.00,1.1786
4213.00,1.1785
4212.00,1.1784
4211.00,1.1783
4210.00,1.1783
4209.00,1.1783
4208.00,1.1783
4207.00,1.1783
4206.00,1.1783
4205.00,1.1783
4204.00,1.1783
4203.00,1.1783
4202.00,1.1783
4201.00,1.1783
4200.00,1.1783
4199.00,1.1782
4198.00,1.1782
4197.00,1.1782
4196.00,1.1782
4195.00,1.1782
4194.00,1.1782
4193.00,1.1781
4192.00,1.1781
4191.00,1.1781
4190.00,1.1781
4189.00,1.1781
4188.00,1.1782
4187.00,1.1782
4186.00,1.1782
4185.00,1.1781
4184.00,1.1781
4183.00,1.1780
4182.00,1.1780
4181.00,1.1781
4180.00,1.1781
4179.00,1.1781
4178.00,1.1781
4177.00,1.1781
4176.00,1.1781
4175.00,1.1780
4174.00,1.1779
4173.00,1.1778
4172.00,1.1778
4171.00,1.1778
4170.00,1.1778
4169.00,1.1778
4168.00,1.1778
4167.00,1.1778
4166.00,1.1778
4165.00,1.1777
4164.00,1.1777
4163.00,1.1777
4162.00,1.1777
4161.00,1.1777
4160.00,1.1776
4159.00,1.1776
4158.00,1.1776
4157.00,1.1776
4156.00,1.1776
4155.00,1.1776
4154.00,1.1776
4153.00,1.1775
4152.00,1.1775
4151.00,1.1775
4150.00,1.1774
4149.00,1.1774
4148.00,1.1773
4147.00,1.1772
4146.00,1.1772
4145.00,1.1772
4144.00,1.1772
4143.00,1.1772
4142.00,1.1771
4141.00,1.1771
4140.00,1.1770
4139.00,1.1770
4138.00,1.1770
4137.00,1.1770
4136.00,1.1770
4135.00,1.1770
4134.00,1.1770
4133.00,1.1770
4132.00,1.1769
4131.00,1.1769
4130.00,1.1768
4129.00,1.1768
4128.00,1.1768
4127.00,1.1768
4126.00,1.1768
4125.00,1.1767
4124.00,1.1767
4123.00,1.1767
4122.00,1.1766
4121.00,1.1766
4120.00,1.1765
4119.00,1.1765
4118.00,1.1764
4117.00,1.1764
4116.00,1.1764
4115.00,1.1764
4114.00,1.1764
4113.00,1.1764
4112.00,1.1763
4111.00,1.1763
4110.00,1.1763
4109.00,1.1762
4108.00,1.1762
4107.00,1.1761
4106.00,1.1761
4105.00,1.1760
4104.00,1.1760
4103.00,1.1760
4102.00,1.1760
4101.00,1.1760
4100.00,1.1759
4099.00,1.1759
4098.00,1.1759
4097.00,1.1759
4096.00,1.1760
4095.00,1.1760
4094.00,1.1760
4093.00,1.1759
4092.00,1.1759
4091.00,1.1759
4090.00,1.1759
4089.00,1.1759
4088.00,1.1759
4087.00,1.1759
4086.00,1.1758
4085.00,1.1758
4084.00,1.1757
4083.00,1.1757
4082.00,1.1756
4081.00,1.1756
4080.00,1.1756
4079.00,1.1756
4078.00,1.1756
4077.00,1.1756
4076.00,1.1756
4075.00,1.1755
4074.00,1.1755
4073.00,1.1755
4072.00,1.1754
4071.00,1.1754
4070.00,1.1754
4069.00,1.1753
4068.00,1.1753
4067.00,1.1752
4066.00,1.1752
4065.00,1.1752
4064.00,1.1752
4063.00,1.1751
4062.00,1.1751
4061.00,1.1751
4060.00,1.1751
4059.00,1.1750
4058.00,1.1750
4057.00,1.1750
4056.00,1.1750
4055.00,1.1749
4054.00,1.1749
4053.00,1.1749
4052.00,1.1749
4051.00,1.1748
4050.00,1.1748
4049.00,1.1748
4048.00,1.1747
4047.00,1.1747
4046.00,1.1746
4045.00,1.1746
4044.00,1.1746
4043.00,1.1746
4042.00,1.1746
4041.00,1.1746
4040.00,1.1746
4039.00,1.1745
4038.00,1.1745
4037.00,1.1744
4036.00,1.1743
4035.00,1.1742
4034.00,1.1742
4033.00,1.1742
4032.00,1.1742
4031.00,1.1741
4030.00,1.1741
4029.00,1.1741
4028.00,1.1741
4027.00,1.1741
4026.00,1.1741
4025.00,1.1740
4024.00,1.1740
4023.00,1.1739
4022.00,1.1739
4021.00,1.1738
4020.00,1.1738
4019.00,1.1738
4018.00,1.1738
4017.00,1.1738
4016.00,1.1738
4015.00,1.1738
4014.00,1.1737
4013.00,1.1736
4012.00,1.1736
4011.00,1.1735
4010.00,1.1735
4009.00,1.1734
4008.00,1.1734
4007.00,1.1733
4006.00,1.1733
4005.00,1.1733
4004.00,1.1733
4003.00,1.1733
4002.00,1.1733
4001.00,1.1733
4000.00,1.1732
3999.00,1.1732
3998.00,1.1732
3997.00,1.1731
3996.00,1.1731
3995.00,1.1731
3994.00,1.1730
3993.00,1.1730
3992.00,1.1729
3991.00,1.1729
3990.00,1.1728
3989.00,1.1728
3988.00,1.1727
3987.00,1.1727
3986.00,1.1726
3985.00,1.1726
3984.00,1.1725
3983.00,1.1725
3982.00,1.1725
3981.00,1.1724
3980.00,1.1724
3979.00,1.1724
3978.00,1.1723
3977.00,1.1722
3976.00,1.1722
3975.00,1.1721
3974.00,1.1720
3973.00,1.1720
3972.00,1.1720
3971.00,1.1719
3970.00,1.1719
3969.00,1.1718
3968.00,1.1718
3967.00,1.1717
3966.00,1.1716
3965.00,1.1715
3964.00,1.1715
3963.00,1.1714
3962.00,1.1714
3961.00,1.1713
3960.00,1.1713
3959.00,1.1712
3958.00,1.1711
3957.00,1.1711
3956.00,1.1710
3955.00,1.1710
3954.00,1.1710
3953.00,1.1709
3952.00,1.1709
3951.00,1.1708
3950.00,1.1707
3949.00,1.1706
3948.00,1.1705
3947.00,1.1704
3946.00,1.1704
3945.00,1.1703
3944.00,1.1702
3943.00,1.1701
3942.00,1.1700
3941.00,1.1699
3940.00,1.1698
3939.00,1.1697
3938.00,1.1696
3937.00,1.1695
3936.00,1.1695
3935.00,1.1694
3934.00,1.1694
3933.00,1.1693
3932.00,1.1692
3931.00,1.1691
3930.00,1.1690
3929.00,1.1690
3928.00,1.1689
3927.00,1.1689
3926.00,1.1688
3925.00,1.1688
3924.00,1.1688
3923.00,1.1687
3922.00,1.1685
3921.00,1.1683
3920.00,1.1681
3919.00,1.1680
3918.00,1.1678
3917.00,1.1677
3916.00,1.1676
3915.00,1.1676
3914.00,1.1675
3913.00,1.1674
3912.00,1.1673
3911.00,1.1673
3910.00,1.1673
3909.00,1.1673
3908.00,1.1673
3907.00,1.1673
3906.00,1.1672
3905.00,1.1670
3904.00,1.1668
3903.00,1.1666
3902.00,1.1664
3901.00,1.1662
3900.00,1.1661
3899.00,1.1661
3898.00,1.1661
3897.00,1.1662
3896.00,1.1662
3895.00,1.1662
3894.00,1.1663
3893.00,1.1662
3892.00,1.1660
3891.00,1.1658
3890.00,1.1656
3889.00,1.1654
3888.00,1.1652
3887.00,1.1649
3886.00,1.1649
3885.00,1.1649
3884.00,1.1651
3883.00,1.1651
3882.00,1.1650
3881.00,1.1649
3880.00,1.1648
3879.00,1.1647
3878.00,1.1646
3877.00,1.1645
3876.00,1.1644
3875.00,1.1643
3874.00,1.1644
3873.00,1.1644
3872.00,1.1643
3871.00,1.1639
3870.00,1.1637
3869.00,1.1637
3868.00,1.1637
3867.00,1.1637
3866.00,1.1636
3865.00,1.1635
3864.00,1.1635
3863.00,1.1633
3862.00,1.1632
3861.00,1.1630
3860.00,1.1629
3859.00,1.1628
3858.00,1.1627
3857.00,1.1627
3856.00,1.1627
3855.00,1.1627
3854.00,1.1624
3853.00,1.1622
3852.00,1.1621
3851.00,1.1620
3850.00,1.1620
3849.00,1.1619
3848.00,1.1618
3847.00,1.1618
3846.00,1.1618
3845.00,1.1618
3844.00,1.1618
3843.00,1.1618
3842.00,1.1617
3841.00,1.1616
3840.00,1.1615
3839.00,1.1614
3838.00,1.1613
3837.00,1.1613
3836.00,1.1612
3835.00,1.1611
3834.00,1.1610
3833.00,1.1608
3832.00,1.1606
3831.00,1.1605
3830.00,1.1605
3829.00,1.1605
3828.00,1.1604
3827.00,1.1602
3826.00,1.1603
3825.00,1.1603
3824.00,1.1603
3823.00,1.1602
3822.00,1.1600
3821.00,1.1598
3820.00,1.1597
3819.00,1.1596
3818.00,1.1593
3817.00,1.1591
3816.00,1.1590
3815.00,1.1592
3814.00,1.1594
3813.00,1.1593
3812.00,1.1593
3811.00,1.1592
3810.00,1.1591
3809.00,1.1590
3808.00,1.1588
3807.00,1.1587
3806.00,1.1587
3805.00,1.1586
3804.00,1.1585
3803.00,1.1584
3802.00,1.1584
3801.00,1.1586
3800.00,1.1587
3799.00,1.1587
3798.00,1.1586
3797.00,1.1584
3796.00,1.1583
3795.00,1.1582
3794.00,1.1582
3793.00,1.1581
3792.00,1.1580
3791.00,1.1580
3790.00,1.1579
3789.00,1.1579
3788.00,1.1579
3787.00,1.1579
3786.00,1.1578
3785.00,1.1577
3784.00,1.1577
3783.00,1.1576
3782.00,1.1576
3781.00,1.1574
3780.00,1.1573
3779.00,1.1573
3778.00,1.1573
3777.00,1.1573
3776.00,1.1571
3775.00,1.1570
3774.00,1.1570
3773.00,1.1569
3772.00,1.1568
3771.00,1.1567
3770.00,1.1566
3769.00,1.1566
3768.00,1.1566
3767.00,1.1565
3766.00,1.1563
3765.00,1.1563
3764.00,1.1563
3763.00,1.1563
3762.00,1.1562
3761.00,1.1562
3760.00,1.1562
3759.00,1.1561
3758.00,1.1559
3757.00,1.1557
3756.00,1.1555
3755.00,1.1553
3754.00,1.1551
3753.00,1.1549
3752.00,1.1548
3751.00,1.1546
3750.00,1.1543
3749.00,1.1542
3748.00,1.1542
3747.00,1.1541
3746.00,1.1540
3745.00,1.1539
3744.00,1.1540
3743.00,1.1542
3742.00,1.1542
3741.00,1.1541
3740.00,1.1539
3739.00,1.1538
3738.00,1.1538
3737.00,1.1539
3736.00,1.1540
3735.00,1.1541
3734.00,1.1540
3733.00,1.1538
3732.00,1.1537
3731.00,1.1537
3730.00,1.1537
3729.00,1.1537
3728.00,1.1537
3727.00,1.1537
3726.00,1.1538
3725.00,1.1539
3724.00,1.1538
3723.00,1.1538
3722.00,1.1539
3721.00,1.1539
3720.00,1.1538
3719.00,1.1538
3718.00,1.1537
3717.00,1.1537
3716.00,1.1536
3715.00,1.1535
3714.00,1.1534
3713.00,1.1533
3712.00,1.1534
3711.00,1.1537
3710.00,1.1540
3709.00,1.1545
3708.00,1.1548
3707.00,1.1549
3706.00,1.1548
3705.00,1.1546
3704.00,1.1545
3703.00,1.1544
3702.00,1.1543
3701.00,1.1543
3700.00,1.1542
3699.00,1.1542
3698.00,1.1542
3697.00,1.1542
3696.00,1.1543
3695.00,1.1544
3694.00,1.1545
3693.00,1.1545
3692.00,1.1545
3691.00,1.1544
3690.00,1.1543
3689.00,1.1542
3688.00,1.1542
3687.00,1.1544
3686.00,1.1547
3685.00,1.1549
3684.00,1.1551
3683.00,1.1553
3682.00,1.1555
3681.00,1.1556
3680.00,1.1558
3679.00,1.1560
3678.00,1.1561
3677.00,1.1561
3676.00,1.1561
3675.00,1.1563
3674.00,1.1566
3673.00,1.1569
3672.00,1.1571
3671.00,1.1573
3670.00,1.1576
3669.00,1.1579
3668.00,1.1583
3667.00,1.1585
3666.00,1.1588
3665.00,1.1591
3664.00,1.1593
3663.00,1.1596
3662.00,1.1599
3661.00,1.1601
3660.00,1.1604
3659.00,1.1606
3658.00,1.1608
3657.00,1.1609
3656.00,1.1611
3655.00,1.1614
3654.00,1.1617
3653.00,1.1619
3652.00,1.1620
3651.00,1.1622
3650.00,1.1624
3649.00,1.1627
3648.00,1.1629
3647.00,1.1633
3646.00,1.1636
3645.00,1.1640
3644.00,1.1643
3643.00,1.1646
3642.00,1.1649
3641.00,1.1652
3640.00,1.1654
3639.00,1.1656
3638.00,1.1658
3637.00,1.1660
3636.00,1.1661
3635.00,1.1662
3634.00,1.1662
3633.00,1.1663
3632.00,1.1664
3631.00,1.1664
3630.00,1.1664
3629.00,1.1664
3628.00,1.1666
3627.00,1.1669
3626.00,1.1671
3625.00,1.1674
3624.00,1.1676
3623.00,1.1679
3622.00,1.1682
3621.00,1.1684
3620.00,1.1686
3619.00,1.1688
3618.00,1.1689
3617.00,1.1691
3616.00,1.1691
3615.00,1.1692
3614.00,1.1692
3613.00,1.1691
3612.00,1.1691
3611.00,1.1691
3610.00,1.1691
3609.00,1.1692
3608.00,1.1693
3607.00,1.1695
3606.00,1.1697
3605.00,1.1698
3604.00,1.1700
3603.00,1.1701
3602.00,1.1703
3601.00,1.1705
3600.00,1.1707
3599.00,1.1709
3598.00,1.1709
3597.00,1.1709
3596.00,1.1709
3595.00,1.1708
3594.00,1.1707
3593.00,1.1707
3592.00,1.1706
3591.00,1.1706
3590.00,1.1706
3589.00,1.1706
3588.00,1.1706
3587.00,1.1706
3586.00,1.1707
3585.00,1.1708
3584.00,1.1708
3583.00,1.1709
3582.00,1.1710
3581.00,1.1710
3580.00,1.1711
3579.00,1.1711
3578.00,1.1711
3577.00,1.1711
3576.00,1.1711
3575.00,1.1711
3574.00,1.1711
3573.00,1.1711
3572.00,1.1711
3571.00,1.1711
3570.00,1.1711
3569.00,1.1711
3568.00,1.1711
3567.00,1.1712
3566.00,1.1713
3565.00,1.1713
3564.00,1.1713
3563.00,1.1713
3562.00,1.1713
3561.00,1.1713
3560.00,1.1714
3559.00,1.1714
3558.00,1.1714
3557.00,1.1714
3556.00,1.1714
3555.00,1.1714
3554.00,1.1715
3553.00,1.1715
3552.00,1.1715
3551.00,1.1715
3550.00,1.1715
3549.00,1.1715
3548.00,1.1714
3547.00,1.1714
3546.00,1.1714
3545.00,1.1713
3544.00,1.1714
3543.00,1.1714
3542.00,1.1716
3541.00,1.1717
3540.00,1.1718
3539.00,1.1719
3538.00,1.1719
3537.00,1.1719
3536.00,1.1720
3535.00,1.1720
3534.00,1.1721
3533.00,1.1722
3532.00,1.1723
3531.00,1.1724
3530.00,1.1724
3529.00,1.1725
3528.00,1.1725
3527.00,1.1726
3526.00,1.1726
3525.00,1.1726
3524.00,1.1726
3523.00,1.1726
3522.00,1.1727
3521.00,1.1728
3520.00,1.1728
3519.00,1.1729
3518.00,1.1730
3517.00,1.1730
3516.00,1.1731
3515.00,1.1731
3514.00,1.1732
3513.00,1.1734
3512.00,1.1735
3511.00,1.1737
3510.00,1.1739
3509.00,1.1740
3508.00,1.1741
3507.00,1.1742
3506.00,1.1742
3505.00,1.1743
3504.00,1.1744
3503.00,1.1744
3502.00,1.1746
3501.00,1.1747
3500.00,1.1749
3499.00,1.1750
3498.00,1.1752
3497.00,1.1753
3496.00,1.1754
3495.00,1.1756
3494.00,1.1757
3493.00,1.1758
3492.00,1.1760
3491.00,1.1762
3490.00,1.1764
3489.00,1.1765
3488.00,1.1766
3487.00,1.1768
3486.00,1.1769
3485.00,1.1772
3484.00,1.1774
3483.00,1.1776
3482.00,1.1777
3481.00,1.1778
3480.00,1.1779
3479.00,1.1780
3478.00,1.1782
3477.00,1.1784
3476.00,1.1787
3475.00,1.1789
3474.00,1.1792
3473.00,1.1794
3472.00,1.1796
3471.00,1.1797
3470.00,1.1798
3469.00,1.1799
3468.00,1.1801
3467.00,1.1804
3466.00,1.1807
3465.00,1.1810
3464.00,1.1813
3463.00,1.1816
3462.00,1.1818
3461.00,1.1820
3460.00,1.1823
3459.00,1.1826
3458.00,1.1829
3457.00,1.1832
3456.00,1.1835
3455.00,1.1838
3454.00,1.1841
3453.00,1.1843
3452.00,1.1846
3451.00,1.1849
3450.00,1.1853
3449.00,1.1857
3448.00,1.1860
3447.00,1.1863
3446.00,1.1866
3445.00,1.1870
3444.00,1.1874
3443.00,1.1877
3442.00,1.1880
3441.00,1.1883
3440.00,1.1886
3439.00,1.1889
3438.00,1.1892
3437.00,1.1895
3436.00,1.1898
3435.00,1.1902
3434.00,1.1906
3433.00,1.1910
3432.00,1.1914
3431.00,1.1918
3430.00,1.1922
3429.00,1.1926
3428.00,1.1930
3427.00,1.1935
3426.00,1.1939
3425.00,1.1943
3424.00,1.1947
3423.00,1.1950
3422.00,1.1953
3421.00,1.1956
3420.00,1.1959
3419.00,1.1962
3418.00,1.1965
3417.00,1.1968
3416.00,1.1970
3415.00,1.1973
3414.00,1.1975
3413.00,1.1978
3412.00,1.1980
3411.00,1.1983
3410.00,1.1986
3409.00,1.1988
3408.00,1.1990
3407.00,1.1992
3406.00,1.1995
3405.00,1.1996
3404.00,1.1998
3403.00,1.1998
3402.00,1.1999
3401.00,1.2000
3400.00,1.2002
3399.00,1.2004
3398.00,1.2007
3397.00,1.2010
3396.00,1.2013
3395.00,1.2015
3394.00,1.2016
3393.00,1.2017
3392.00,1.2018
3391.00,1.2019
3390.00,1.2022
3389.00,1.2024
3388.00,1.2027
3387.00,1.2029
3386.00,1.2030
3385.00,1.2032
3384.00,1.2034
3383.00,1.2035
3382.00,1.2037
3381.00,1.2038
3380.00,1.2039
3379.00,1.2041
3378.00,1.2042
3377.00,1.2043
3376.00,1.2044
3375.00,1.2045
3374.00,1.2045
3373.00,1.2046
3372.00,1.2045
3371.00,1.2045
3370.00,1.2045
3369.00,1.2046
3368.00,1.2047
3367.00,1.2049
3366.00,1.2051
3365.00,1.2052
3364.00,1.2054
3363.00,1.2055
3362.00,1.2055
3361.00,1.2056
3360.00,1.2057
3359.00,1.2057
3358.00,1.2058
3357.00,1.2058
3356.00,1.2059
3355.00,1.2059
3354.00,1.2059
3353.00,1.2060
3352.00,1.2059
3351.00,1.2059
3350.00,1.2059
3349.00,1.2059
3348.00,1.2060
3347.00,1.2061
3346.00,1.2062
3345.00,1.2062
3344.00,1.2062
3343.00,1.2062
3342.00,1.2062
3341.00,1.2062
3340.00,1.2062
3339.00,1.2062
3338.00,1.2062
3337.00,1.2062
3336.00,1.2064
3335.00,1.2065
3334.00,1.2066
3333.00,1.2066
3332.00,1.2066
3331.00,1.2066
3330.00,1.2066
3329.00,1.2066
3328.00,1.2066
3327.00,1.2067
3326.00,1.2068
3325.00,1.2068
3324.00,1.2069
3323.00,1.2070
3322.00,1.2070
3321.00,1.2070
3320.00,1.2071
3319.00,1.2071
3318.00,1.2072
3317.00,1.2072
3316.00,1.2073
3315.00,1.2073
3314.00,1.2074
3313.00,1.2074
3312.00,1.2075
3311.00,1.2075
3310.00,1.2075
3309.00,1.2075
3308.00,1.2074
3307.00,1.2074
3306.00,1.2074
3305.00,1.2075
3304.00,1.2077
3303.00,1.2080
3302.00,1.2082
3301.00,1.2084
3300.00,1.2085
3299.00,1.2085
3298.00,1.2085
3297.00,1.2086
3296.00,1.2086
3295.00,1.2087
3294.00,1.2087
3293.00,1.2088
3292.00,1.2089
3291.00,1.2090
3290.00,1.2092
3289.00,1.2093
3288.00,1.2094
3287.00,1.2095
3286.00,1.2096
3285.00,1.2097
3284.00,1.2098
3283.00,1.2098
3282.00,1.2099
3281.00,1.2100
3280.00,1.2101
3279.00,1.2101
3278.00,1.2102
3277.00,1.2102
3276.00,1.2103
3275.00,1.2104
3274.00,1.2105
3273.00,1.2106
3272.00,1.2106
3271.00,1.2107
3270.00,1.2107
3269.00,1.2108
3268.00,1.2110
3267.00,1.2112
3266.00,1.2114
3265.00,1.2115
3264.00,1.2116
3263.00,1.2117
3262.00,1.2117
3261.00,1.2118
3260.00,1.2120
3259.00,1.2121
3258.00,1.2122
3257.00,1.2123
3256.00,1.2124
3255.00,1.2125
3254.00,1.2127
3253.00,1.2128
3252.00,1.2129
3251.00,1.2130
3250.00,1.2131
3249.00,1.2132
3248.00,1.2133
3247.00,1.2134
3246.00,1.2136
3245.00,1.2138
3244.00,1.2140
3243.00,1.2141
3242.00,1.2143
3241.00,1.2144
3240.00,1.2145
3239.00,1.2147
3238.00,1.2148
3237.00,1.2149
3236.00,1.2150
3235.00,1.2151
3234.00,1.2151
3233.00,1.2152
3232.00,1.2154
3231.00,1.2156
3230.00,1.2159
3229.00,1.2161
3228.00,1.2162
3227.00,1.2164
3226.00,1.2165
3225.00,1.2166
3224.00,1.2167
3223.00,1.2168
3222.00,1.2169
3221.00,1.2169
3220.00,1.2169
3219.00,1.2169
3218.00,1.2170
3217.00,1.2170
3216.00,1.2170
3215.00,1.2170
3214.00,1.2170
3213.00,1.2170
3212.00,1.2170
3211.00,1.2170
3210.00,1.2170
3209.00,1.2170
3208.00,1.2170
3207.00,1.2170
3206.00,1.2169
3205.00,1.2169
3204.00,1.2169
3203.00,1.2169
3202.00,1.2169
3201.00,1.2168
3200.00,1.2167
3199.00,1.2167
3198.00,1.2166
3197.00,1.2166
3196.00,1.2165
3195.00,1.2165
3194.00,1.2165
3193.00,1.2165
3192.00,1.2165
3191.00,1.2164
3190.00,1.2164
3189.00,1.2163
3188.00,1.2163
3187.00,1.2163
3186.00,1.2163
3185.00,1.2163
3184.00,1.2163
3183.00,1.2162
3182.00,1.2162
3181.00,1.2162
3180.00,1.2162
3179.00,1.2161
3178.00,1.2161
3177.00,1.2161
3176.00,1.2160
3175.00,1.2160
3174.00,1.2159
3173.00,1.2159
3172.00,1.2159
3171.00,1.2159
3170.00,1.2159
3169.00,1.2159
3168.00,1.2159
3167.00,1.2158
3166.00,1.2158
3165.00,1.2158
3164.00,1.2158
3163.00,1.2158
3162.00,1.2158
3161.00,1.2158
3160.00,1.2158
3159.00,1.2158
3158.00,1.2158
3157.00,1.2158
3156.00,1.2158
3155.00,1.2158
3154.00,1.2158
3153.00,1.2157
3152.00,1.2157
3151.00,1.2157
3150.00,1.2158
3149.00,1.2159
3148.00,1.2160
3147.00,1.2160
3146.00,1.2160
3145.00,1.2161
3144.00,1.2161
3143.00,1.2161
3142.00,1.2161
3141.00,1.2161
3140.00,1.2161
3139.00,1.2161
3138.00,1.2162
3137.00,1.2163
3136.00,1.2164
3135.00,1.2165
3134.00,1.2166
3133.00,1.2167
3132.00,1.2167
3131.00,1.2168
3130.00,1.2168
3129.00,1.2168
3128.00,1.2168
3127.00,1.2168
3126.00,1.2168
3125.00,1.2168
3124.00,1.2168
3123.00,1.2168
3122.00,1.2167
3121.00,1.2167
3120.00,1.2167
3119.00,1.2167
3118.00,1.2167
3117.00,1.2167
3116.00,1.2167
3115.00,1.2168
3114.00,1.2169
3113.00,1.2170
3112.00,1.2171
3111.00,1.2171
3110.00,1.2171
3109.00,1.2171
3108.00,1.2171
3107.00,1.2171
3106.00,1.2171
3105.00,1.2171
3104.00,1.2171
3103.00,1.2171
3102.00,1.2171
3101.00,1.2171
3100.00,1.2170
3099.00,1.2170
3098.00,1.2169
3097.00,1.2169
3096.00,1.2169
3095.00,1.2169
3094.00,1.2168
3093.00,1.2168
3092.00,1.2167
3091.00,1.2166
3090.00,1.2165
3089.00,1.2164
3088.00,1.2164
3087.00,1.2163
3086.00,1.2162
3085.00,1.2161
3084.00,1.2160
3083.00,1.2159
3082.00,1.2157
3081.00,1.2156
3080.00,1.2155
3079.00,1.2153
3078.00,1.2152
3077.00,1.2152
3076.00,1.2152
3075.00,1.2151
3074.00,1.2151
3073.00,1.2150
3072.00,1.2148
3071.00,1.2147
3070.00,1.2146
3069.00,1.2144
3068.00,1.2143
3067.00,1.2142
3066.00,1.2141
3065.00,1.2141
3064.00,1.2140
3063.00,1.2139
3062.00,1.2138
3061.00,1.2137
3060.00,1.2136
3059.00,1.2135
3058.00,1.2134
3057.00,1.2133
3056.00,1.2131
3055.00,1.2130
3054.00,1.2129
3053.00,1.2128
3052.00,1.2127
3051.00,1.2125
3050.00,1.2124
3049.00,1.2123
3048.00,1.2123
3047.00,1.2121
3046.00,1.2120
3045.00,1.2118
3044.00,1.2117
3043.00,1.2116
3042.00,1.2115
3041.00,1.2114
3040.00,1.2113
3039.00,1.2113
3038.00,1.2112
3037.00,1.2111
3036.00,1.2110
3035.00,1.2109
3034.00,1.2108
3033.00,1.2107
3032.00,1.2106
3031.00,1.2106
3030.00,1.2105
3029.00,1.2105
3028.00,1.2104
3027.00,1.2102
3026.00,1.2101
3025.00,1.2100
3024.00,1.2099
3023.00,1.2098
3022.00,1.2097
3021.00,1.2096
3020.00,1.2095
3019.00,1.2094
3018.00,1.2093
3017.00,1.2092
3016.00,1.2091
3015.00,1.2090
3014.00,1.2089
3013.00,1.2088
3012.00,1.2088
3011.00,1.2088
3010.00,1.2088
3009.00,1.2087
3008.00,1.2086
3007.00,1.2085
3006.00,1.2083
3005.00,1.2082
3004.00,1.2081
3003.00,1.2080
3002.00,1.2079
3001.00,1.2077
3000.00,1.2076
2999.00,1.2075
2998.00,1.2074
2997.00,1.2073
2996.00,1.2072
2995.00,1.2070
2994.00,1.2069
2993.00,1.2068
2992.00,1.2067
2991.00,1.2066
2990.00,1.2065
2989.00,1.2064
2988.00,1.2063
2987.00,1.2062
2986.00,1.2060
2985.00,1.2059
2984.00,1.2058
2983.00,1.2058
2982.00,1.2057
2981.00,1.2056
2980.00,1.2055
2979.00,1.2053
2978.00,1.2052
2977.00,1.2050
2976.00,1.2049
2975.00,1.2047
2974.00,1.2046
2973.00,1.2045
2972.00,1.2044
2971.00,1.2043
2970.00,1.2042
2969.00,1.2041
2968.00,1.2040
2967.00,1.2040
2966.00,1.2039
2965.00,1.2039
2964.00,1.2038
2963.00,1.2038
2962.00,1.2037
2961.00,1.2036
2960.00,1.2036
2959.00,1.2035
2958.00,1.2034
2957.00,1.2033
2956.00,1.2033
2955.00,1.2031
2954.00,1.2030
2953.00,1.2029
2952.00,1.2027
2951.00,1.2026
2950.00,1.2025
2949.00,1.2023
2948.00,1.2021
2947.00,1.2020
2946.00,1.2017
2945.00,1.2015
2944.00,1.2014
2943.00,1.2012
2942.00,1.2011
2941.00,1.2010
2940.00,1.2008
2939.00,1.2007
2938.00,1.2007
2937.00,1.2006
2936.00,1.2006
2935.00,1.2006
2934.00,1.2005
2933.00,1.2004
2932.00,1.2003
2931.00,1.2001
2930.00,1.2000
2929.00,1.2000
2928.00,1.2000
2927.00,1.2001
2926.00,1.2002
2925.00,1.2004
2924.00,1.2005
2923.00,1.2006
2922.00,1.2007
2921.00,1.2008
2920.00,1.2009
2919.00,1.2009
2918.00,1.2008
2917.00,1.2007
2916.00,1.2005
2915.00,1.2003
2914.00,1.2001
2913.00,1.1999
2912.00,1.1998
2911.00,1.1996
2910.00,1.1995
2909.00,1.1993
2908.00,1.1991
2907.00,1.1990
2906.00,1.1989
2905.00,1.1988
2904.00,1.1987
2903.00,1.1985
2902.00,1.1984
2901.00,1.1983
2900.00,1.1982
2899.00,1.1981
2898.00,1.1980
2897.00,1.1979
2896.00,1.1978
2895.00,1.1977
2894.00,1.1975
2893.00,1.1975
2892.00,1.1974
2891.00,1.1973
2890.00,1.1972
2889.00,1.1971
2888.00,1.1970
2887.00,1.1968
2886.00,1.1968
2885.00,1.1967
2884.00,1.1966
2883.00,1.1966
2882.00,1.1964
2881.00,1.1963
2880.00,1.1962
2879.00,1.1961
2878.00,1.1960
2877.00,1.1958
2876.00,1.1957
2875.00,1.1955
2874.00,1.1953
2873.00,1.1952
2872.00,1.1951
2871.00,1.1950
2870.00,1.1949
2869.00,1.1948
2868.00,1.1947
2867.00,1.1946
2866.00,1.1945
2865.00,1.1944
2864.00,1.1944
2863.00,1.1944
2862.00,1.1944
2861.00,1.1944
2860.00,1.1945
2859.00,1.1946
2858.00,1.1946
2857.00,1.1947
2856.00,1.1947
2855.00,1.1947
2854.00,1.1947
2853.00,1.1946
2852.00,1.1947
2851.00,1.1947
2850.00,1.1947
2849.00,1.1947
2848.00,1.1947
2847.00,1.1946
2846.00,1.1945
2845.00,1.1944
2844.00,1.1943
2843.00,1.1942
2842.00,1.1940
2841.00,1.1939
2840.00,1.1937
2839.00,1.1935
2838.00,1.1934
2837.00,1.1934
2836.00,1.1933
2835.00,1.1933
2834.00,1.1933
2833.00,1.1932
2832.00,1.1932
2831.00,1.1931
2830.00,1.1931
2829.00,1.1930
2828.00,1.1930
2827.00,1.1929
2826.00,1.1928
2825.00,1.1927
2824.00,1.1926
2823.00,1.1926
2822.00,1.1925
2821.00,1.1924
2820.00,1.1924
2819.00,1.1923
2818.00,1.1923
2817.00,1.1922
2816.00,1.1922
2815.00,1.1921
2814.00,1.1921
2813.00,1.1920
2812.00,1.1919
2811.00,1.1919
2810.00,1.1918
2809.00,1.1917
2808.00,1.1917
2807.00,1.1917
2806.00,1.1916
2805.00,1.1916
2804.00,1.1915
2803.00,1.1915
2802.00,1.1914
2801.00,1.1913
2800.00,1.1913
2799.00,1.1912
2798.00,1.1911
2797.00,1.1910
2796.00,1.1910
2795.00,1.1910
2794.00,1.1910
2793.00,1.1909
2792.00,1.1909
2791.00,1.1908
2790.00,1.1907
2789.00,1.1907
2788.00,1.1908
2787.00,1.1908
2786.00,1.1908
2785.00,1.1908
2784.00,1.1907
2783.00,1.1906
2782.00,1.1906
2781.00,1.1905
2780.00,1.1905
2779.00,1.1904
2778.00,1.1904
2777.00,1.1903
2776.00,1.1903
2775.00,1.1902
2774.00,1.1901
2773.00,1.1901
2772.00,1.1901
2771.00,1.1900
2770.00,1.1900
2769.00,1.1900
2768.00,1.1900
2767.00,1.1899
2766.00,1.1899
2765.00,1.1899
2764.00,1.1899
2763.00,1.1898
2762.00,1.1897
2761.00,1.1897
2760.00,1.1897
2759.00,1.1896
2758.00,1.1896
2757.00,1.1896
2756.00,1.1896
2755.00,1.1895
2754.00,1.1895
2753.00,1.1894
2752.00,1.1894
2751.00,1.1893
2750.00,1.1893
2749.00,1.1893
2748.00,1.1893
2747.00,1.1893
2746.00,1.1893
2745.00,1.1892
2744.00,1.1892
2743.00,1.1891
2742.00,1.1891
2741.00,1.1891
2740.00,1.1890
2739.00,1.1890
2738.00,1.1890
2737.00,1.1890
2736.00,1.1890
2735.00,1.1889
2734.00,1.1889
2733.00,1.1890
2732.00,1.1890
2731.00,1.1889
2730.00,1.1889
2729.00,1.1888
2728.00,1.1888
2727.00,1.1887
2726.00,1.1887
2725.00,1.1887
2724.00,1.1887
2723.00,1.1886
2722.00,1.1886
2721.00,1.1886
2720.00,1.1886
2719.00,1.1886
2718.00,1.1885
2717.00,1.1885
2716.00,1.1885
2715.00,1.1884
2714.00,1.1884
2713.00,1.1884
2712.00,1.1884
2711.00,1.1883
2710.00,1.1883
2709.00,1.1883
2708.00,1.1883
2707.00,1.1883
2706.00,1.1882
2705.00,1.1882
2704.00,1.1882
2703.00,1.1882
2702.00,1.1882
2701.00,1.1882
2700.00,1.1882
2699.00,1.1882
2698.00,1.1881
2697.00,1.1881
2696.00,1.1881
2695.00,1.1881
2694.00,1.1881
2693.00,1.1881
2692.00,1.1881
2691.00,1.1880
2690.00,1.1880
2689.00,1.1880
2688.00,1.1880
2687.00,1.1880
2686.00,1.1880
2685.00,1.1880
2684.00,1.1880
2683.00,1.1879
2682.00,1.1879
2681.00,1.1879
2680.00,1.1879
2679.00,1.1879
2678.00,1.1879
2677.00,1.1879
2676.00,1.1879
2675.00,1.1879
2674.00,1.1878
2673.00,1.1878
2672.00,1.1878
2671.00,1.1878
2670.00,1.1878
2669.00,1.1878
2668.00,1.1878
2667.00,1.1879
2666.00,1.1879
2665.00,1.1878
2664.00,1.1878
2663.00,1.1878
2662.00,1.1878
2661.00,1.1879
2660.00,1.1879
2659.00,1.1879
2658.00,1.1878
2657.00,1.1878
2656.00,1.1878
2655.00,1.1878
2654.00,1.1878
2653.00,1.1879
2652.00,1.1879
2651.00,1.1879
2650.00,1.1879
2649.00,1.1879
2648.00,1.1879
2647.00,1.1879
2646.00,1.1879
2645.00,1.1879
2644.00,1.1880
2643.00,1.1879
2642.00,1.1879
2641.00,1.1879
2640.00,1.1879
2639.00,1.1879
2638.00,1.1879
2637.00,1.1879
2636.00,1.1879
2635.00,1.1879
2634.00,1.1879
2633.00,1.1879
2632.00,1.1879
2631.00,1.1879
2630.00,1.1879
2629.00,1.1878
2628.00,1.1878
2627.00,1.1879
2626.00,1.1879
2625.00,1.1879
2624.00,1.1880
2623.00,1.1880
2622.00,1.1880
2621.00,1.1880
2620.00,1.1880
2619.00,1.1879
2618.00,1.1879
2617.00,1.1879
2616.00,1.1880
2615.00,1.1880
2614.00,1.1880
2613.00,1.1880
2612.00,1.1880
2611.00,1.1880
2610.00,1.1880
2609.00,1.1880
2608.00,1.1880
2607.00,1.1881
2606.00,1.1881
2605.00,1.1881
2604.00,1.1881
2603.00,1.1881
2602.00,1.1881
2601.00,1.1881
2600.00,1.1881
2599.00,1.1881
2598.00,1.1881
2597.00,1.1882
2596.00,1.1882
2595.00,1.1881
2594.00,1.1881
2593.00,1.1881
2592.00,1.1882
2591.00,1.1882
2590.00,1.1882
2589.00,1.1882
2588.00,1.1883
2587.00,1.1883
2586.00,1.1883
2585.00,1.1883
2584.00,1.1883
2583.00,1.1883
2582.00,1.1884
2581.00,1.1884
2580.00,1.1884
2579.00,1.1884
2578.00,1.1884
2577.00,1.1884
2576.00,1.1884
2575.00,1.1884
2574.00,1.1884
2573.00,1.1884
2572.00,1.1885
2571.00,1.1885
2570.00,1.1885
2569.00,1.1885
2568.00,1.1885
2567.00,1.1885
2566.00,1.1885
2565.00,1.1886
2564.00,1.1886
2563.00,1.1886
2562.00,1.1887
2561.00,1.1887
2560.00,1.1888
2559.00,1.1888
2558.00,1.1888
2557.00,1.1888
2556.00,1.1888
2555.00,1.1888
2554.00,1.1888
2553.00,1.1889
2552.00,1.1889
2551.00,1.1889
2550.00,1.1889
2549.00,1.1889
2548.00,1.1890
2547.00,1.1890
2546.00,1.1890
2545.00,1.1890
2544.00,1.1890
2543.00,1.1891
2542.00,1.1891
2541.00,1.1891
2540.00,1.1891
2539.00,1.1891
2538.00,1.1892
2537.00,1.1892
2536.00,1.1893
2535.00,1.1893
2534.00,1.1893
2533.00,1.1894
2532.00,1.1894
2531.00,1.1894
2530.00,1.1894
2529.00,1.1895
2528.00,1.1895
2527.00,1.1895
2526.00,1.1895
2525.00,1.1896
2524.00,1.1896
2523.00,1.1896
2522.00,1.1896
2521.00,1.1897
2520.00,1.1897
2519.00,1.1897
2518.00,1.1898
2517.00,1.1898
2516.00,1.1899
2515.00,1.1899
2514.00,1.1899
2513.00,1.1900
2512.00,1.1900
2511.00,1.1900
2510.00,1.1900
2509.00,1.1901
2508.00,1.1901
2507.00,1.1901
2506.00,1.1901
2505.00,1.1901
2504.00,1.1902
2503.00,1.1902
2502.00,1.1902
2501.00,1.1902
2500.00,1.1903
2499.00,1.1903
2498.00,1.1903
2497.00,1.1903
2496.00,1.1903
2495.00,1.1903
2494.00,1.1903
2493.00,1.1903
2492.00,1.1904
2491.00,1.1904
2490.00,1.1904
2489.00,1.1904
2488.00,1.1904
2487.00,1.1904
2486.00,1.1904
2485.00,1.1904
2484.00,1.1904
2483.00,1.1904
2482.00,1.1904
2481.00,1.1905
2480.00,1.1905
2479.00,1.1905
2478.00,1.1905
2477.00,1.1905
2476.00,1.1905
2475.00,1.1905
2474.00,1.1905
2473.00,1.1905
2472.00,1.1905
2471.00,1.1905
2470.00,1.1905
2469.00,1.1905
2468.00,1.1906
2467.00,1.1906
2466.00,1.1906
2465.00,1.1906
2464.00,1.1906
2463.00,1.1906
2462.00,1.1906
2461.00,1.1906
2460.00,1.1906
2459.00,1.1906
2458.00,1.1905
2457.00,1.1905
2456.00,1.1905
2455.00,1.1906
2454.00,1.1906
2453.00,1.1905
2452.00,1.1905
2451.00,1.1904
2450.00,1.1903
2449.00,1.1903
2448.00,1.1903
2447.00,1.1903
2446.00,1.1902
2445.00,1.1902
2444.00,1.1902
2443.00,1.1902
2442.00,1.1901
2441.00,1.1901
2440.00,1.1900
2439.00,1.1900
2438.00,1.1900
2437.00,1.1900
2436.00,1.1900
2435.00,1.1900
2434.00,1.1899
2433.00,1.1898
2432.00,1.1898
2431.00,1.1897
2430.00,1.1897
2429.00,1.1897
2428.00,1.1896
2427.00,1.1896
2426.00,1.1895
2425.00,1.1895
2424.00,1.1894
2423.00,1.1894
2422.00,1.1894
2421.00,1.1893
2420.00,1.1893
2419.00,1.1892
2418.00,1.1892
2417.00,1.1892
2416.00,1.1892
2415.00,1.1891
2414.00,1.1891
2413.00,1.1890
2412.00,1.1890
2411.00,1.1889
2410.00,1.1889
2409.00,1.1888
2408.00,1.1888
2407.00,1.1887
2406.00,1.1887
2405.00,1.1887
2404.00,1.1886
2403.00,1.1886
2402.00,1.1885
2401.00,1.1884
2400.00,1.1884
2399.00,1.1883
2398.00,1.1882
2397.00,1.1881
2396.00,1.1880
2395.00,1.1879
2394.00,1.1879
2393.00,1.1878
2392.00,1.1877
2391.00,1.1876
2390.00,1.1875
2389.00,1.1874
2388.00,1.1874
2387.00,1.1874
2386.00,1.1874
2385.00,1.1874
2384.00,1.1874
2383.00,1.1875
2382.00,1.1877
2381.00,1.1881
2380.00,1.1887
2379.00,1.1893
2378.00,1.1898
2377.00,1.1901
2376.00,1.1904
2375.00,1.1905
2374.00,1.1905
2373.00,1.1904
2372.00,1.1903
2371.00,1.1902
2370.00,1.1901
2369.00,1.1902
2368.00,1.1902
2367.00,1.1903
2366.00,1.1904
2365.00,1.1905
2364.00,1.1907
2363.00,1.1908
2362.00,1.1909
2361.00,1.1911
2360.00,1.1912
2359.00,1.1912
2358.00,1.1913
2357.00,1.1913
2356.00,1.1914
2355.00,1.1916
2354.00,1.1919
2353.00,1.1923
2352.00,1.1926
2351.00,1.1927
2350.00,1.1926
2349.00,1.1924
2348.00,1.1921
2347.00,1.1920
2346.00,1.1919
2345.00,1.1920
2344.00,1.1921
2343.00,1.1923
2342.00,1.1926
2341.00,1.1929
2340.00,1.1931
2339.00,1.1931
2338.00,1.1931
2337.00,1.1929
2336.00,1.1928
2335.00,1.1926
2334.00,1.1926
2333.00,1.1925
2332.00,1.1925
2331.00,1.1924
2330.00,1.1924
2329.00,1.1923
2328.00,1.1923
2327.00,1.1922
2326.00,1.1921
2325.00,1.1921
2324.00,1.1921
2323.00,1.1921
2322.00,1.1921
2321.00,1.1920
2320.00,1.1920
2319.00,1.1920
2318.00,1.1919
2317.00,1.1919
2316.00,1.1920
2315.00,1.1920
2314.00,1.1920
2313.00,1.1921
2312.00,1.1921
2311.00,1.1920
2310.00,1.1920
2309.00,1.1919
2308.00,1.1919
2307.00,1.1919
2306.00,1.1918
2305.00,1.1918
2304.00,1.1917
2303.00,1.1917
2302.00,1.1916
2301.00,1.1915
2300.00,1.1915
2299.00,1.1914
2298.00,1.1914
2297.00,1.1913
2296.00,1.1913
2295.00,1.1912
2294.00,1.1912
2293.00,1.1912
2292.00,1.1912
2291.00,1.1911
2290.00,1.1911
2289.00,1.1911
2288.00,1.1911
2287.00,1.1911
2286.00,1.1911
2285.00,1.1912
2284.00,1.1913
2283.00,1.1914
2282.00,1.1914
2281.00,1.1914
2280.00,1.1914
2279.00,1.1914
2278.00,1.1913
2277.00,1.1913
2276.00,1.1913
2275.00,1.1912
2274.00,1.1912
2273.00,1.1912
2272.00,1.1912
2271.00,1.1912
2270.00,1.1912
2269.00,1.1912
2268.00,1.1911
2267.00,1.1911
2266.00,1.1911
2265.00,1.1911
2264.00,1.1912
2263.00,1.1912
2262.00,1.1912
2261.00,1.1912
2260.00,1.1912
2259.00,1.1912
2258.00,1.1912
2257.00,1.1912
2256.00,1.1912
2255.00,1.1912
2254.00,1.1912
2253.00,1.1912
2252.00,1.1912
2251.00,1.1912
2250.00,1.1912
2249.00,1.1912
2248.00,1.1912
2247.00,1.1911
2246.00,1.1911
2245.00,1.1911
2244.00,1.1911
2243.00,1.1911
2242.00,1.1911
2241.00,1.1911
2240.00,1.1911
2239.00,1.1911
2238.00,1.1911
2237.00,1.1911
2236.00,1.1911
2235.00,1.1911
2234.00,1.1911
2233.00,1.1911
2232.00,1.1910
2231.00,1.1910
2230.00,1.1910
2229.00,1.1909
2228.00,1.1910
2227.00,1.1910
2226.00,1.1910
2225.00,1.1910
2224.00,1.1910
2223.00,1.1910
2222.00,1.1910
2221.00,1.1909
2220.00,1.1909
2219.00,1.1909
2218.00,1.1908
2217.00,1.1908
2216.00,1.1908
2215.00,1.1908
2214.00,1.1908
2213.00,1.1908
2212.00,1.1908
2211.00,1.1907
2210.00,1.1907
2209.00,1.1906
2208.00,1.1905
2207.00,1.1905
2206.00,1.1905
2205.00,1.1905
2204.00,1.1905
2203.00,1.1904
2202.00,1.1904
2201.00,1.1904
2200.00,1.1904
2199.00,1.1904
2198.00,1.1903
2197.00,1.1903
2196.00,1.1904
2195.00,1.1904
2194.00,1.1903
2193.00,1.1903
2192.00,1.1902
2191.00,1.1902
2190.00,1.1902
2189.00,1.1902
2188.00,1.1903
2187.00,1.1902
2186.00,1.1902
2185.00,1.1901
2184.00,1.1901
2183.00,1.1900
2182.00,1.1900
2181.00,1.1899
2180.00,1.1899
2179.00,1.1899
2178.00,1.1898
2177.00,1.1898
2176.00,1.1897
2175.00,1.1897
2174.00,1.1897
2173.00,1.1896
2172.00,1.1896
2171.00,1.1896
2170.00,1.1896
2169.00,1.1895
2168.00,1.1895
2167.00,1.1894
2166.00,1.1894
2165.00,1.1893
2164.00,1.1893
2163.00,1.1892
2162.00,1.1891
2161.00,1.1891
2160.00,1.1890
2159.00,1.1890
2158.00,1.1889
2157.00,1.1889
2156.00,1.1889
2155.00,1.1888
2154.00,1.1887
2153.00,1.1887
2152.00,1.1886
2151.00,1.1886
2150.00,1.1885
2149.00,1.1885
2148.00,1.1884
2147.00,1.1884
2146.00,1.1883
2145.00,1.1883
2144.00,1.1883
2143.00,1.1882
2142.00,1.1881
2141.00,1.1881
2140.00,1.1880
2139.00,1.1879
2138.00,1.1879
2137.00,1.1878
2136.00,1.1878
2135.00,1.1877
2134.00,1.1876
2133.00,1.1875
2132.00,1.1875
2131.00,1.1874
2130.00,1.1874
2129.00,1.1873
2128.00,1.1873
2127.00,1.1872
2126.00,1.1871
2125.00,1.1871
2124.00,1.1870
2123.00,1.1869
2122.00,1.1868
2121.00,1.1868
2120.00,1.1867
2119.00,1.1867
2118.00,1.1866
2117.00,1.1866
2116.00,1.1865
2115.00,1.1864
2114.00,1.1863
2113.00,1.1863
2112.00,1.1862
2111.00,1.1861
2110.00,1.1860
2109.00,1.1860
2108.00,1.1859
2107.00,1.1858
2106.00,1.1857
2105.00,1.1857
2104.00,1.1856
2103.00,1.1855
2102.00,1.1854
2101.00,1.1854
2100.00,1.1854
2099.00,1.1853
2098.00,1.1852
2097.00,1.1852
2096.00,1.1851
2095.00,1.1851
2094.00,1.1850
2093.00,1.1849
2092.00,1.1849
2091.00,1.1848
2090.00,1.1847
2089.00,1.1846
2088.00,1.1845
2087.00,1.1844
2086.00,1.1843
2085.00,1.1842
2084.00,1.1842
2083.00,1.1841
2082.00,1.1841
2081.00,1.1840
2080.00,1.1839
2079.00,1.1838
2078.00,1.1837
2077.00,1.1836
2076.00,1.1836
2075.00,1.1835
2074.00,1.1834
2073.00,1.1833
2072.00,1.1832
2071.00,1.1831
2070.00,1.1830
2069.00,1.1830
2068.00,1.1829
2067.00,1.1828
2066.00,1.1827
2065.00,1.1827
2064.00,1.1826
2063.00,1.1826
2062.00,1.1825
2061.00,1.1824
2060.00,1.1823
2059.00,1.1823
2058.00,1.1822
2057.00,1.1821
2056.00,1.1821
2055.00,1.1820
2054.00,1.1819
2053.00,1.1818
2052.00,1.1818
2051.00,1.1816
2050.00,1.1815
2049.00,1.1814
2048.00,1.1814
2047.00,1.1813
2046.00,1.1812
2045.00,1.1811
2044.00,1.1811
2043.00,1.1810
2042.00,1.1809
2041.00,1.1809
2040.00,1.1808
2039.00,1.1806
2038.00,1.1805
2037.00,1.1804
2036.00,1.1804
2035.00,1.1803
2034.00,1.1802
2033.00,1.1801
2032.00,1.1801
2031.00,1.1801
2030.00,1.1800
2029.00,1.1799
2028.00,1.1799
2027.00,1.1798
2026.00,1.1797
2025.00,1.1796
2024.00,1.1796
2023.00,1.1795
2022.00,1.1794
2021.00,1.1794
2020.00,1.1793
2019.00,1.1792
2018.00,1.1791
2017.00,1.1791
2016.00,1.1790
2015.00,1.1790
2014.00,1.1789
2013.00,1.1788
2012.00,1.1788
2011.00,1.1787
2010.00,1.1786
2009.00,1.1785
2008.00,1.1784
2007.00,1.1784
2006.00,1.1783
2005.00,1.1783
2004.00,1.1783
2003.00,1.1782
2002.00,1.1782
2001.00,1.1781
2000.00,1.1781
1999.00,1.1780
1998.00,1.1779
1997.00,1.1779
1996.00,1.1778
1995.00,1.1778
1994.00,1.1778
1993.00,1.1777
1992.00,1.1777
1991.00,1.1775
1990.00,1.1774
1989.00,1.1773
1988.00,1.1773
1987.00,1.1772
1986.00,1.1772
1985.00,1.1771
1984.00,1.1771
1983.00,1.1770
1982.00,1.1769
1981.00,1.1769
1980.00,1.1769
1979.00,1.1768
1978.00,1.1767
1977.00,1.1767
1976.00,1.1766
1975.00,1.1766
1974.00,1.1765
1973.00,1.1765
1972.00,1.1765
1971.00,1.1765
1970.00,1.1765
1969.00,1.1765
1968.00,1.1765
1967.00,1.1764
1966.00,1.1763
1965.00,1.1762
1964.00,1.1762
1963.00,1.1761
1962.00,1.1761
1961.00,1.1760
1960.00,1.1760
1959.00,1.1760
1958.00,1.1760
1957.00,1.1760
1956.00,1.1760
1955.00,1.1759
1954.00,1.1759
1953.00,1.1758
1952.00,1.1758
1951.00,1.1758
1950.00,1.1757
1949.00,1.1757
1948.00,1.1757
1947.00,1.1757
1946.00,1.1757
1945.00,1.1757
1944.00,1.1758
1943.00,1.1758
1942.00,1.1757
1941.00,1.1756
1940.00,1.1755
1939.00,1.1755
1938.00,1.1754
1937.00,1.1754
1936.00,1.1754
1935.00,1.1754
1934.00,1.1754
1933.00,1.1754
1932.00,1.1754
1931.00,1.1754
1930.00,1.1753
1929.00,1.1753
1928.00,1.1753
1927.00,1.1753
1926.00,1.1752
1925.00,1.1753
1924.00,1.1753
1923.00,1.1753
1922.00,1.1752
1921.00,1.1752
1920.00,1.1753
1919.00,1.1754
1918.00,1.1754
1917.00,1.1753
1916.00,1.1752
1915.00,1.1751
1914.00,1.1751
1913.00,1.1752
1912.00,1.1753
1911.00,1.1753
1910.00,1.1753
1909.00,1.1753
1908.00,1.1753
1907.00,1.1752
1906.00,1.1751
1905.00,1.1752
1904.00,1.1752
1903.00,1.1752
1902.00,1.1752
1901.00,1.1752
1900.00,1.1752
1899.00,1.1752
1898.00,1.1751
1897.00,1.1752
1896.00,1.1753
1895.00,1.1752
1894.00,1.1751
1893.00,1.1751
1892.00,1.1752
1891.00,1.1753
1890.00,1.1753
1889.00,1.1753
1888.00,1.1753
1887.00,1.1752
1886.00,1.1751
1885.00,1.1751
1884.00,1.1752
1883.00,1.1752
1882.00,1.1751
1881.00,1.1752
1880.00,1.1752
1879.00,1.1752
1878.00,1.1751
1877.00,1.1751
1876.00,1.1752
1875.00,1.1752
1874.00,1.1751
1873.00,1.1752
1872.00,1.1754
1871.00,1.1756
1870.00,1.1757
1869.00,1.1757
1868.00,1.1757
1867.00,1.1755
1866.00,1.1752
1865.00,1.1751
1864.00,1.1752
1863.00,1.1752
1862.00,1.1751
1861.00,1.1752
1860.00,1.1753
1859.00,1.1753
1858.00,1.1752
1857.00,1.1752
1856.00,1.1753
1855.00,1.1753
1854.00,1.1753
1853.00,1.1753
1852.00,1.1753
1851.00,1.1753
1850.00,1.1753
1849.00,1.1753
1848.00,1.1754
1847.00,1.1756
1846.00,1.1758
1845.00,1.1760
1844.00,1.1760
1843.00,1.1757
1842.00,1.1754
1841.00,1.1753
1840.00,1.1754
1839.00,1.1755
1838.00,1.1755
1837.00,1.1755
1836.00,1.1756
1835.00,1.1756
1834.00,1.1756
1833.00,1.1757
1832.00,1.1759
1831.00,1.1760
1830.00,1.1760
1829.00,1.1760
1828.00,1.1759
1827.00,1.1758
1826.00,1.1758
1825.00,1.1758
1824.00,1.1758
1823.00,1.1759
1822.00,1.1759
1821.00,1.1760
1820.00,1.1761
1819.00,1.1762
1818.00,1.1761
1817.00,1.1761
1816.00,1.1762
1815.00,1.1763
1814.00,1.1762
1813.00,1.1763
1812.00,1.1764
1811.00,1.1764
1810.00,1.1763
1809.00,1.1763
1808.00,1.1764
1807.00,1.1765
1806.00,1.1765
1805.00,1.1765
1804.00,1.1767
1803.00,1.1767
1802.00,1.1766
1801.00,1.1766
1800.00,1.1766
1799.00,1.1766
1798.00,1.1766
1797.00,1.1766
1796.00,1.1768
1795.00,1.1769
1794.00,1.1768
1793.00,1.1768
1792.00,1.1770
1791.00,1.1770
1790.00,1.1769
1789.00,1.1769
1788.00,1.1770
1787.00,1.1771
1786.00,1.1771
1785.00,1.1772
1784.00,1.1773
1783.00,1.1774
1782.00,1.1774
1781.00,1.1774
1780.00,1.1775
1779.00,1.1776
1778.00,1.1776
1777.00,1.1777
1776.00,1.1778
1775.00,1.1780
1774.00,1.1781
1773.00,1.1781
1772.00,1.1781
1771.00,1.1781
1770.00,1.1781
1769.00,1.1782
1768.00,1.1783
1767.00,1.1783
1766.00,1.1784
1765.00,1.1785
1764.00,1.1786
1763.00,1.1789
1762.00,1.1790
1761.00,1.1789
1760.00,1.1789
1759.00,1.1790
1758.00,1.1792
1757.00,1.1792
1756.00,1.1791
1755.00,1.1790
1754.00,1.1790
1753.00,1.1789
1752.00,1.1788
1751.00,1.1789
1750.00,1.1791
1749.00,1.1793
1748.00,1.1795
1747.00,1.1796
1746.00,1.1799
1745.00,1.1800
1744.00,1.1801
1743.00,1.1801
1742.00,1.1802
1741.00,1.1802
1740.00,1.1802
1739.00,1.1802
1738.00,1.1802
1737.00,1.1802
1736.00,1.1802
1735.00,1.1801
1734.00,1.1800
1733.00,1.1802
1732.00,1.1805
1731.00,1.1808
1730.00,1.1810
1729.00,1.1811
1728.00,1.1813
1727.00,1.1813
1726.00,1.1813
1725.00,1.1814
1724.00,1.1816
1723.00,1.1816
1722.00,1.1813
1721.00,1.1813
1720.00,1.1815
1719.00,1.1816
1718.00,1.1814
1717.00,1.1815
1716.00,1.1819
1715.00,1.1819
1714.00,1.1816
1713.00,1.1816
1712.00,1.1819
1711.00,1.1820
1710.00,1.1819
1709.00,1.1819
1708.00,1.1822
1707.00,1.1823
1706.00,1.1821
1705.00,1.1821
1704.00,1.1822
1703.00,1.1822
1702.00,1.1819
1701.00,1.1818
1700.00,1.1818
1699.00,1.1819
1698.00,1.1819
1697.00,1.1823
1696.00,1.1828
1695.00,1.1830
1694.00,1.1829
1693.00,1.1828
1692.00,1.1828
1691.00,1.1829
1690.00,1.1828
1689.00,1.1828
1688.00,1.1827
1687.00,1.1829
1686.00,1.1833
1685.00,1.1836
1684.00,1.1836
1683.00,1.1835
1682.00,1.1834
1681.00,1.1834
1680.00,1.1832
1679.00,1.1831
1678.00,1.1832
1677.00,1.1832
1676.00,1.1831
1675.00,1.1830
1674.00,1.1831
1673.00,1.1833
1672.00,1.1832
1671.00,1.1832
1670.00,1.1833
1669.00,1.1835
1668.00,1.1835
1667.00,1.1835
1666.00,1.1837
1665.00,1.1839
1664.00,1.1840
1663.00,1.1839
1662.00,1.1840
1661.00,1.1840
1660.00,1.1838
1659.00,1.1838
1658.00,1.1839
1657.00,1.1840
1656.00,1.1840
1655.00,1.1841
1654.00,1.1843
1653.00,1.1843
1652.00,1.1842
1651.00,1.1843
1650.00,1.1843
1649.00,1.1841
1648.00,1.1841
1647.00,1.1841
1646.00,1.1842
1645.00,1.1842
1644.00,1.1843
1643.00,1.1843
1642.00,1.1842
1641.00,1.1842
1640.00,1.1841
1639.00,1.1842
1638.00,1.1842
1637.00,1.1842
1636.00,1.1842
1635.00,1.1842
1634.00,1.1843
1633.00,1.1843
1632.00,1.1844
1631.00,1.1843
1630.00,1.1843
1629.00,1.1844
1628.00,1.1844
1627.00,1.1844
1626.00,1.1844
1625.00,1.1844
1624.00,1.1843
1623.00,1.1841
1622.00,1.1842
1621.00,1.1842
1620.00,1.1843
1619.00,1.1843
1618.00,1.1845
1617.00,1.1847
1616.00,1.1847
1615.00,1.1846
1614.00,1.1847
1613.00,1.1847
1612.00,1.1846
1611.00,1.1845
1610.00,1.1846
1609.00,1.1849
1608.00,1.1850
1607.00,1.1851
1606.00,1.1853
1605.00,1.1855
1604.00,1.1854
1603.00,1.1854
1602.00,1.1855
1601.00,1.1855
1600.00,1.1854
1599.00,1.1854
1598.00,1.1855
1597.00,1.1855
1596.00,1.1855
1595.00,1.1855
1594.00,1.1856
1593.00,1.1856
1592.00,1.1856
1591.00,1.1855
1590.00,1.1855
1589.00,1.1856
1588.00,1.1856
1587.00,1.1856
1586.00,1.1857
1585.00,1.1858
1584.00,1.1857
1583.00,1.1856
1582.00,1.1858
1581.00,1.1859
1580.00,1.1859
1579.00,1.1859
1578.00,1.1862
1577.00,1.1863
1576.00,1.1861
1575.00,1.1859
1574.00,1.1860
1573.00,1.1860
1572.00,1.1857
1571.00,1.1856
1570.00,1.1858
1569.00,1.1858
1568.00,1.1856
1567.00,1.1855
1566.00,1.1857
1565.00,1.1858
1564.00,1.1857
1563.00,1.1858
1562.00,1.1862
1561.00,1.1864
1560.00,1.1862
1559.00,1.1859
1558.00,1.1860
1557.00,1.1861
1556.00,1.1860
1555.00,1.1858
1554.00,1.1858
1553.00,1.1857
1552.00,1.1856
1551.00,1.1856
1550.00,1.1858
1549.00,1.1858
1548.00,1.1857
1547.00,1.1856
1546.00,1.1858
1545.00,1.1860
1544.00,1.1861
1543.00,1.1861
1542.00,1.1861
1541.00,1.1861
1540.00,1.1860
1539.00,1.1858
1538.00,1.1859
1537.00,1.1861
1536.00,1.1861
1535.00,1.1860
1534.00,1.1860
1533.00,1.1860
1532.00,1.1860
1531.00,1.1860
1530.00,1.1859
1529.00,1.1860
1528.00,1.1861
1527.00,1.1861
1526.00,1.1860
1525.00,1.1859
1524.00,1.1858
1523.00,1.1857
1522.00,1.1857
1521.00,1.1857
1520.00,1.1858
1519.00,1.1857
1518.00,1.1856
1517.00,1.1855
1516.00,1.1855
1515.00,1.1856
1514.00,1.1855
1513.00,1.1855
1512.00,1.1856
1511.00,1.1857
1510.00,1.1856
1509.00,1.1853
1508.00,1.1851
1507.00,1.1850
1506.00,1.1848
1505.00,1.1847
1504.00,1.1848
1503.00,1.1849
1502.00,1.1847
1501.00,1.1845
1500.00,1.1843
1499.00,1.1842
1498.00,1.1839
1497.00,1.1838
1496.00,1.1841
1495.00,1.1847
1494.00,1.1853
1493.00,1.1858
1492.00,1.1862
1491.00,1.1864
1490.00,1.1864
1489.00,1.1864
1488.00,1.1865
1487.00,1.1863
1486.00,1.1861
1485.00,1.1860
1484.00,1.1859
1483.00,1.1858
1482.00,1.1856
1481.00,1.1855
1480.00,1.1855
1479.00,1.1855
1478.00,1.1852
1477.00,1.1851
1476.00,1.1851
1475.00,1.1849
1474.00,1.1846
1473.00,1.1845
1472.00,1.1845
1471.00,1.1846
1470.00,1.1846
1469.00,1.1847
1468.00,1.1849
1467.00,1.1849
1466.00,1.1848
1465.00,1.1846
1464.00,1.1845
1463.00,1.1845
1462.00,1.1845
1461.00,1.1844
1460.00,1.1843
1459.00,1.1844
1458.00,1.1843
1457.00,1.1839
1456.00,1.1836
1455.00,1.1836
1454.00,1.1838
1453.00,1.1840
1452.00,1.1842
1451.00,1.1845
1450.00,1.1848
1449.00,1.1849
1448.00,1.1849
1447.00,1.1850
1446.00,1.1850
1445.00,1.1847
1444.00,1.1844
1443.00,1.1844
1442.00,1.1845
1441.00,1.1843
1440.00,1.1841
1439.00,1.1842
1438.00,1.1843
1437.00,1.1840
1436.00,1.1838
1435.00,1.1839
1434.00,1.1840
1433.00,1.1838
1432.00,1.1837
1431.00,1.1838
1430.00,1.1839
1429.00,1.1838
1428.00,1.1836
1427.00,1.1837
1426.00,1.1838
1425.00,1.1835
1424.00,1.1832
1423.00,1.1833
1422.00,1.1837
1421.00,1.1838
1420.00,1.1837
1419.00,1.1837
1418.00,1.1836
1417.00,1.1832
1416.00,1.1829
1415.00,1.1830
1414.00,1.1832
1413.00,1.1831
1412.00,1.1829
1411.00,1.1830
1410.00,1.1830
1409.00,1.1829
1408.00,1.1827
1407.00,1.1827
1406.00,1.1828
1405.00,1.1828
1404.00,1.1827
1403.00,1.1828
1402.00,1.1830
1401.00,1.1830
1400.00,1.1828
1399.00,1.1828
1398.00,1.1828
1397.00,1.1828
1396.00,1.1828
1395.00,1.1828
1394.00,1.1829
1393.00,1.1827
1392.00,1.1824
1391.00,1.1823
1390.00,1.1824
1389.00,1.1824
1388.00,1.1823
1387.00,1.1821
1386.00,1.1821
1385.00,1.1820
1384.00,1.1820
1383.00,1.1821
1382.00,1.1821
1381.00,1.1821
1380.00,1.1819
1379.00,1.1818
1378.00,1.1818
1377.00,1.1818
1376.00,1.1817
1375.00,1.1816
1374.00,1.1816
1373.00,1.1816
1372.00,1.1815
1371.00,1.1814
1370.00,1.1814
1369.00,1.1814
1368.00,1.1813
1367.00,1.1812
1366.00,1.1812
1365.00,1.1812
1364.00,1.1811
1363.00,1.1811
1362.00,1.1811
1361.00,1.1810
1360.00,1.1809
1359.00,1.1808
1358.00,1.1808
1357.00,1.1807
1356.00,1.1807
1355.00,1.1806
1354.00,1.1806
1353.00,1.1806
1352.00,1.1805
1351.00,1.1804
1350.00,1.1804
1349.00,1.1804
1348.00,1.1803
1347.00,1.1803
1346.00,1.1803
1345.00,1.1802
1344.00,1.1802
1343.00,1.1801
1342.00,1.1801
1341.00,1.1801
1340.00,1.1800
1339.00,1.1800
1338.00,1.1800
1337.00,1.1799
1336.00,1.1798
1335.00,1.1798
1334.00,1.1798
1333.00,1.1797
1332.00,1.1797
1331.00,1.1796
1330.00,1.1796
1329.00,1.1795
1328.00,1.1794
1327.00,1.1794
1326.00,1.1794
1325.00,1.1793
1324.00,1.1793
1323.00,1.1792
1322.00,1.1792
1321.00,1.1792
1320.00,1.1791
1319.00,1.1790
1318.00,1.1790
1317.00,1.1789
1316.00,1.1788
1315.00,1.1788
1314.00,1.1788
1313.00,1.1788
1312.00,1.1787
1311.00,1.1786
1310.00,1.1786
1309.00,1.1785
1308.00,1.1784
1307.00,1.1783
1306.00,1.1783
1305.00,1.1783
1304.00,1.1782
1303.00,1.1782
1302.00,1.1781
1301.00,1.1781
1300.00,1.1780
1299.00,1.1779
1298.00,1.1779
1297.00,1.1778
1296.00,1.1777
1295.00,1.1777
1294.00,1.1777
1293.00,1.1777
1292.00,1.1776
1291.00,1.1776
1290.00,1.1776
1289.00,1.1775
1288.00,1.1774
1287.00,1.1774
1286.00,1.1774
1285.00,1.1774
1284.00,1.1773
1283.00,1.1772
1282.00,1.1772
1281.00,1.1772
1280.00,1.1771
1279.00,1.1771
1278.00,1.1771
1277.00,1.1771
1276.00,1.1770
1275.00,1.1769
1274.00,1.1769
1273.00,1.1769
1272.00,1.1768
1271.00,1.1767
1270.00,1.1767
1269.00,1.1767
1268.00,1.1766
1267.00,1.1766
1266.00,1.1767
1265.00,1.1767
1264.00,1.1767
1263.00,1.1768
1262.00,1.1771
1261.00,1.1773
1260.00,1.1775
1259.00,1.1776
1258.00,1.1777
1257.00,1.1778
1256.00,1.1777
1255.00,1.1776
1254.00,1.1775
1253.00,1.1774
1252.00,1.1773
1251.00,1.1773
1250.00,1.1773
1249.00,1.1773
1248.00,1.1773
1247.00,1.1773
1246.00,1.1774
1245.00,1.1774
1244.00,1.1774
1243.00,1.1775
1242.00,1.1776
1241.00,1.1776
1240.00,1.1776
1239.00,1.1776
1238.00,1.1777
1237.00,1.1777
1236.00,1.1777
1235.00,1.1778
1234.00,1.1779
1233.00,1.1779
1232.00,1.1779
1231.00,1.1779
1230.00,1.1780
1229.00,1.1780
1228.00,1.1781
1227.00,1.1782
1226.00,1.1783
1225.00,1.1783
1224.00,1.1783
1223.00,1.1784
1222.00,1.1784
1221.00,1.1784
1220.00,1.1783
1219.00,1.1783
1218.00,1.1783
1217.00,1.1783
1216.00,1.1783
1215.00,1.1784
1214.00,1.1786
1213.00,1.1787
1212.00,1.1786
1211.00,1.1786
1210.00,1.1787
1209.00,1.1787
1208.00,1.1787
1207.00,1.1788
1206.00,1.1789
1205.00,1.1790
1204.00,1.1790
1203.00,1.1790
1202.00,1.1792
1201.00,1.1793
1200.00,1.1793
1199.00,1.1794
1198.00,1.1795
1197.00,1.1795
1196.00,1.1795
1195.00,1.1795
1194.00,1.1796
1193.00,1.1796
1192.00,1.1797
1191.00,1.1798
1190.00,1.1800
1189.00,1.1802
1188.00,1.1803
1187.00,1.1803
1186.00,1.1803
1185.00,1.1803
1184.00,1.1803
1183.00,1.1803
1182.00,1.1805
1181.00,1.1807
1180.00,1.1809
1179.00,1.1812
1178.00,1.1814
1177.00,1.1814
1176.00,1.1813
1175.00,1.1813
1174.00,1.1814
1173.00,1.1815
1172.00,1.1815
1171.00,1.1816
1170.00,1.1817
1169.00,1.1818
1168.00,1.1819
1167.00,1.1820
1166.00,1.1822
1165.00,1.1823
1164.00,1.1823
1163.00,1.1824
1162.00,1.1826
1161.00,1.1827
1160.00,1.1827
1159.00,1.1827
1158.00,1.1827
1157.00,1.1828
1156.00,1.1828
1155.00,1.1828
1154.00,1.1829
1153.00,1.1829
1152.00,1.1830
1151.00,1.1830
1150.00,1.1831
1149.00,1.1832
1148.00,1.1832
1147.00,1.1832
1146.00,1.1832
1145.00,1.1832
1144.00,1.1831
1143.00,1.1831
1142.00,1.1832
1141.00,1.1832
1140.00,1.1831
1139.00,1.1831
1138.00,1.1831
1137.00,1.1831
1136.00,1.1830
1135.00,1.1830
1134.00,1.1828
1133.00,1.1826
1132.00,1.1824
1131.00,1.1824
1130.00,1.1825
1129.00,1.1826
1128.00,1.1827
1127.00,1.1827
1126.00,1.1827
1125.00,1.1827
1124.00,1.1825
1123.00,1.1824
1122.00,1.1823
1121.00,1.1821
1120.00,1.1820
1119.00,1.1819
1118.00,1.1819
1117.00,1.1819
1116.00,1.1818
1115.00,1.1818
1114.00,1.1818
1113.00,1.1816
1112.00,1.1814
1111.00,1.1813
1110.00,1.1813
1109.00,1.1813
1108.00,1.1812
1107.00,1.1811
1106.00,1.1810
1105.00,1.1809
1104.00,1.1807
1103.00,1.1806
1102.00,1.1806
1101.00,1.1805
1100.00,1.1803
1099.00,1.1801
1098.00,1.1799
1097.00,1.1797
1096.00,1.1793
1095.00,1.1791
1094.00,1.1790
1093.00,1.1788
1092.00,1.1786
1091.00,1.1784
1090.00,1.1783
1089.00,1.1781
1088.00,1.1779
1087.00,1.1776
1086.00,1.1774
1085.00,1.1770
1084.00,1.1766
1083.00,1.1763
1082.00,1.1761
1081.00,1.1758
1080.00,1.1754
1079.00,1.1750
1078.00,1.1748
1077.00,1.1747
1076.00,1.1746
1075.00,1.1744
1074.00,1.1742
1073.00,1.1740
1072.00,1.1737
1071.00,1.1735
1070.00,1.1734
1069.00,1.1730
1068.00,1.1726
1067.00,1.1724
1066.00,1.1723
1065.00,1.1722
1064.00,1.1720
1063.00,1.1718
1062.00,1.1718
1061.00,1.1715
1060.00,1.1709
1059.00,1.1703
1058.00,1.1697
1057.00,1.1692
1056.00,1.1687
1055.00,1.1685
1054.00,1.1683
1053.00,1.1681
1052.00,1.1677
1051.00,1.1675
1050.00,1.1675
1049.00,1.1674
1048.00,1.1670
1047.00,1.1668
1046.00,1.1666
1045.00,1.1662
1044.00,1.1657
1043.00,1.1652
1042.00,1.1647
1041.00,1.1642
1040.00,1.1636
1039.00,1.1631
1038.00,1.1626
1037.00,1.1621
1036.00,1.1615
1035.00,1.1610
1034.00,1.1607
1033.00,1.1603
1032.00,1.1599
1031.00,1.1595
1030.00,1.1592
1029.00,1.1589
1028.00,1.1584
1027.00,1.1581
1026.00,1.1578
1025.00,1.1575
1024.00,1.1570
1023.00,1.1566
1022.00,1.1564
1021.00,1.1562
1020.00,1.1559
1019.00,1.1555
1018.00,1.1552
1017.00,1.1548
1016.00,1.1543
1015.00,1.1539
1014.00,1.1536
1013.00,1.1531
1012.00,1.1525
1011.00,1.1522
1010.00,1.1520
1009.00,1.1517
1008.00,1.1511
1007.00,1.1507
1006.00,1.1505
1005.00,1.1504
1004.00,1.1503
1003.00,1.1501
1002.00,1.1499
1001.00,1.1495
1000.00,1.1489
