Created as New Dataset,Sample 030 By Administrator Date Monday, February 10 2020
cm-1,A
6000.00,1.1485
5999.00,1.1484
5998.00,1.1483
5997.00,1.1481
5996.00,1.1480
5995.00,1.1480
5994.00,1.1481
5993.00,1.1482
5992.00,1.1482
5991.00,1.1483
5990.00,1.1483
5989.00,1.1483
5988.00,1.1482
5987.00,1.1483
5986.00,1.1483
5985.00,1.1485
5984.00,1.1486
5983.00,1.1487
5982.00,1.1487
5981.00,1.1485
5980.00,1.1482
5979.00,1.1480
5978.00,1.1477
5977.00,1.1476
5976.00,1.1476
5975.00,1.1477
5974.00,1.1478
5973.00,1.1479
5972.00,1.1480
5971.00,1.1481
5970.00,1.1481
5969.00,1.1480
5968.00,1.1479
5967.00,1.1479
5966.00,1.1479
5965.00,1.1478
5964.00,1.1477
5963.00,1.1477
5962.00,1.1476
5961.00,1.1476
5960.00,1.1475
5959.00,1.1476
5958.00,1.1476
5957.00,1.1476
5956.00,1.1475
5955.00,1.1475
5954.00,1.1475
5953.00,1.1474
5952.00,1.1474
5951.00,1.1473
5950.00,1.1473
5949.00,1.1473
5948.00,1.1474
5947.00,1.1474
5946.00,1.1474
5945.00,1.1473
5944.00,1.1472
5943.00,1.1472
5942.00,1.1471
5941.00,1.1470
5940.00,1.1470
5939.00,1.1470
5938.00,1.1471
5937.00,1.1471
5936.00,1.1471
5935.00,1.1471
5934.00,1.1471
5933.00,1.1471
5932.00,1.1471
5931.00,1.1471
5930.00,1.1471
5929.00,1.1472
5928.00,1.1472
5927.00,1.1473
5926.00,1.1473
5925.00,1.1473
5924.00,1.1473
5923.00,1.1473
5922.00,1.1473
5921.00,1.1473
5920.00,1.1473
5919.00,1.1474
5918.00,1.1473
5917.00,1.1473
5916.00,1.1473
5915.00,1.1473
5914.00,1.1472
5913.00,1.1471
5912.00,1.1470
5911.00,1.1471
5910.00,1.1471
5909.00,1.1471
5908.00,1.1471
5907.00,1.1472
5906.00,1.1472
5905.00,1.1471
5904.00,1.1471
5903.00,1.1470
5902.00,1.1470
5901.00,1.1471
5900.00,1.1472
5899.00,1.1473
5898.00,1.1473
5897.00,1.1473
5896.00,1.1472
5895.00,1.1471
5894.00,1.1470
5893.00,1.1469
5892.00,1.1469
5891.00,1.1470
5890.00,1.1470
5889.00,1.1471
5888.00,1.1471
5887.00,1.1471
5886.00,1.1470
5885.00,1.1467
5884.00,1.1465
5883.00,1.1464
5882.00,1.1464
5881.00,1.1464
5880.00,1.1465
5879.00,1.1467
5878.00,1.1468
5877.00,1.1468
5876.00,1.1468
5875.00,1.1466
5874.00,1.1465
5873.00,1.1463
5872.00,1.1462
5871.00,1.1461
5870.00,1.1462
5869.00,1.1463
5868.00,1.1464
5867.00,1.1465
5866.00,1.1464
5865.00,1.1463
5864.00,1.1462
5863.00,1.1462
5862.00,1.1461
5861.00,1.1461
5860.00,1.1461
5859.00,1.1461
5858.00,1.1462
5857.00,1.1462
5856.00,1.1461
5855.00,1.1461
5854.00,1.1460
5853.00,1.1460
5852.00,1.1459
5851.00,1.1459
5850.00,1.1459
5849.00,1.1459
5848.00,1.1460
5847.00,1.1460
5846.00,1.1460
5845.00,1.1460
5844.00,1.1461
5843.00,1.1461
5842.00,1.1462
5841.00,1.1462
5840.00,1.1462
5839.00,1.1463
5838.00,1.1464
5837.00,1.1464
5836.00,1.1464
5835.00,1.1465
5834.00,1.1466
5833.00,1.1465
5832.00,1.1464
5831.00,1.1463
5830.00,1.1463
5829.00,1.1463
5828.00,1.1463
5827.00,1.1465
5826.00,1.1466
5825.00,1.1466
5824.00,1.1466
5823.00,1.1465
5822.00,1.1463
5821.00,1.1461
5820.00,1.1460
5819.00,1.1461
5818.00,1.1462
5817.00,1.1463
5816.00,1.1465
5815.00,1.1466
5814.00,1.1467
5813.00,1.1468
5812.00,1.1467
5811.00,1.1467
5810.00,1.1467
5809.00,1.1466
5808.00,1.1466
5807.00,1.1465
5806.00,1.1464
5805.00,1.1463
5804.00,1.1461
5803.00,1.1460
5802.00,1.1459
5801.00,1.1458
5800.00,1.1458
5799.00,1.1459
5798.00,1.1459
5797.00,1.1459
5796.00,1.1459
5795.00,1.1459
5794.00,1.1458
5793.00,1.1459
5792.00,1.1460
5791.00,1.1461
5790.00,1.1462
5789.00,1.1462
5788.00,1.1463
5787.00,1.1463
5786.00,1.1463
5785.00,1.1463
5784.00,1.1463
5783.00,1.1464
5782.00,1.1464
5781.00,1.1463
5780.00,1.1463
5779.00,1.1462
5778.00,1.1462
5777.00,1.1461
5776.00,1.1460
5775.00,1.1460
5774.00,1.1460
5773.00,1.1459
5772.00,1.1459
5771.00,1.1459
5770.00,1.1459
5769.00,1.1458
5768.00,1.1458
5767.00,1.1458
5766.00,1.1458
5765.00,1.1458
5764.00,1.1458
5763.00,1.1458
5762.00,1.1458
5761.00,1.1458
5760.00,1.1458
5759.00,1.1458
5758.00,1.1459
5757.00,1.1458
5756.00,1.1458
5755.00,1.1457
5754.00,1.1457
5753.00,1.1456
5752.00,1.1456
5751.00,1.1455
5750.00,1.1455
5749.00,1.1455
5748.00,1.1455
5747.00,1.1455
5746.00,1.1456
5745.00,1.1456
5744.00,1.1456
5743.00,1.1457
5742.00,1.1457
5741.00,1.1457
5740.00,1.1457
5739.00,1.1458
5738.00,1.1459
5737.00,1.1460
5736.00,1.1460
5735.00,1.1459
5734.00,1.1458
5733.00,1.1456
5732.00,1.1455
5731.00,1.1454
5730.00,1.1454
5729.00,1.1455
5728.00,1.1456
5727.00,1.1456
5726.00,1.1456
5725.00,1.1455
5724.00,1.1455
5723.00,1.1455
5722.00,1.1455
5721.00,1.1455
5720.00,1.1456
5719.00,1.1457
5718.00,1.1457
5717.00,1.1457
5716.00,1.1457
5715.00,1.1458
5714.00,1.1458
5713.00,1.1458
5712.00,1.1458
5711.00,1.1458
5710.00,1.1457
5709.00,1.1455
5708.00,1.1453
5707.00,1.1452
5706.00,1.1452
5705.00,1.1452
5704.00,1.1452
5703.00,1.1454
5702.00,1.1455
5701.00,1.1456
5700.00,1.1456
5699.00,1.1456
5698.00,1.1456
5697.00,1.1455
5696.00,1.1455
5695.00,1.1455
5694.00,1.1455
5693.00,1.1455
5692.00,1.1455
5691.00,1.1456
5690.00,1.1455
5689.00,1.1454
5688.00,1.1454
5687.00,1.1454
5686.00,1.1454
5685.00,1.1454
5684.00,1.1454
5683.00,1.1454
5682.00,1.1455
5681.00,1.1454
5680.00,1.1454
5679.00,1.1454
5678.00,1.1455
5677.00,1.1456
5676.00,1.1456
5675.00,1.1457
5674.00,1.1458
5673.00,1.1458
5672.00,1.1457
5671.00,1.1457
5670.00,1.1455
5669.00,1.1454
5668.00,1.1453
5667.00,1.1451
5666.00,1.1450
5665.00,1.1450
5664.00,1.1450
5663.00,1.1450
5662.00,1.1449
5661.00,1.1448
5660.00,1.1448
5659.00,1.1448
5658.00,1.1448
5657.00,1.1448
5656.00,1.1449
5655.00,1.1450
5654.00,1.1450
5653.00,1.1449
5652.00,1.1449
5651.00,1.1449
5650.00,1.1449
5649.00,1.1450
5648.00,1.1451
5647.00,1.1452
5646.00,1.1453
5645.00,1.1454
5644.00,1.1454
5643.00,1.1454
5642.00,1.1454
5641.00,1.1453
5640.00,1.1453
5639.00,1.1454
5638.00,1.1454
5637.00,1.1454
5636.00,1.1454
5635.00,1.1454
5634.00,1.1454
5633.00,1.1453
5632.00,1.1453
5631.00,1.1452
5630.00,1.1453
5629.00,1.1453
5628.00,1.1453
5627.00,1.1453
5626.00,1.1453
5625.00,1.1452
5624.00,1.1451
5623.00,1.1450
5622.00,1.1449
5621.00,1.1449
5620.00,1.1448
5619.00,1.1448
5618.00,1.1447
5617.00,1.1447
5616.00,1.1448
5615.00,1.1448
5614.00,1.1448
5613.00,1.1448
5612.00,1.1449
5611.00,1.1450
5610.00,1.1451
5609.00,1.1451
5608.00,1.1451
5607.00,1.1451
5606.00,1.1450
5605.00,1.1449
5604.00,1.1449
5603.00,1.1449
5602.00,1.1449
5601.00,1.1450
5600.00,1.1450
5599.00,1.1451
5598.00,1.1451
5597.00,1.1450
5596.00,1.1449
5595.00,1.1449
5594.00,1.1450
5593.00,1.1451
5592.00,1.1451
5591.00,1.1451
5590.00,1.1451
5589.00,1.1450
5588.00,1.1449
5587.00,1.1447
5586.00,1.1446
5585.00,1.1446
5584.00,1.1445
5583.00,1.1445
5582.00,1.1446
5581.00,1.1447
5580.00,1.1448
5579.00,1.1449
5578.00,1.1449
5577.00,1.1448
5576.00,1.1447
5575.00,1.1446
5574.00,1.1445
5573.00,1.1445
5572.00,1.1445
5571.00,1.1447
5570.00,1.1447
5569.00,1.1447
5568.00,1.1447
5567.00,1.1447
5566.00,1.1446
5565.00,1.1446
5564.00,1.1445
5563.00,1.1445
5562.00,1.1445
5561.00,1.1445
5560.00,1.1445
5559.00,1.1445
5558.00,1.1444
5557.00,1.1444
5556.00,1.1444
5555.00,1.1445
5554.00,1.1445
5553.00,1.1445
5552.00,1.1444
5551.00,1.1444
5550.00,1.1444
5549.00,1.1444
5548.00,1.1444
5547.00,1.1445
5546.00,1.1445
5545.00,1.1446
5544.00,1.1445
5543.00,1.1445
5542.00,1.1444
5541.00,1.1443
5540.00,1.1444
5539.00,1.1444
5538.00,1.1445
5537.00,1.1445
5536.00,1.1445
5535.00,1.1445
5534.00,1.1445
5533.00,1.1445
5532.00,1.1445
5531.00,1.1445
5530.00,1.1445
5529.00,1.1445
5528.00,1.1445
5527.00,1.1446
5526.00,1.1446
5525.00,1.1447
5524.00,1.1447
5523.00,1.1448
5522.00,1.1448
5521.00,1.1448
5520.00,1.1447
5519.00,1.1446
5518.00,1.1445
5517.00,1.1444
5516.00,1.1443
5515.00,1.1443
5514.00,1.1443
5513.00,1.1444
5512.00,1.1444
5511.00,1.1445
5510.00,1.1444
5509.00,1.1444
5508.00,1.1443
5507.00,1.1443
5506.00,1.1443
5505.00,1.1442
5504.00,1.1441
5503.00,1.1441
5502.00,1.1440
5501.00,1.1440
5500.00,1.1440
5499.00,1.1441
5498.00,1.1442
5497.00,1.1442
5496.00,1.1442
5495.00,1.1442
5494.00,1.1440
5493.00,1.1439
5492.00,1.1439
5491.00,1.1440
5490.00,1.1440
5489.00,1.1439
5488.00,1.1440
5487.00,1.1440
5486.00,1.1440
5485.00,1.1439
5484.00,1.1438
5483.00,1.1438
5482.00,1.1438
5481.00,1.1439
5480.00,1.1439
5479.00,1.1440
5478.00,1.1440
5477.00,1.1440
5476.00,1.1440
5475.00,1.1440
5474.00,1.1440
5473.00,1.1440
5472.00,1.1440
5471.00,1.1439
5470.00,1.1438
5469.00,1.1437
5468.00,1.1437
5467.00,1.1438
5466.00,1.1438
5465.00,1.1439
5464.00,1.1440
5463.00,1.1440
5462.00,1.1440
5461.00,1.1438
5460.00,1.1438
5459.00,1.1437
5458.00,1.1437
5457.00,1.1436
5456.00,1.1436
5455.00,1.1437
5454.00,1.1437
5453.00,1.1437
5452.00,1.1437
5451.00,1.1436
5450.00,1.1436
5449.00,1.1436
5448.00,1.1436
5447.00,1.1436
5446.00,1.1435
5445.00,1.1435
5444.00,1.1435
5443.00,1.1435
5442.00,1.1434
5441.00,1.1433
5440.00,1.1434
5439.00,1.1436
5438.00,1.1437
5437.00,1.1437
5436.00,1.1437
5435.00,1.1436
5434.00,1.1437
5433.00,1.1437
5432.00,1.1438
5431.00,1.1438
5430.00,1.1437
5429.00,1.1437
5428.00,1.1438
5427.00,1.1438
5426.00,1.1438
5425.00,1.1437
5424.00,1.1437
5423.00,1.1437
5422.00,1.1438
5421.00,1.1437
5420.00,1.1437
5419.00,1.1437
5418.00,1.1437
5417.00,1.1437
5416.00,1.1436
5415.00,1.1436
5414.00,1.1436
5413.00,1.1436
5412.00,1.1436
5411.00,1.1435
5410.00,1.1435
5409.00,1.1434
5408.00,1.1435
5407.00,1.1435
5406.00,1.1435
5405.00,1.1435
5404.00,1.1435
5403.00,1.1435
5402.00,1.1436
5401.00,1.1436
5400.00,1.1436
5399.00,1.1436
5398.00,1.1436
5397.00,1.1437
5396.00,1.1437
5395.00,1.1436
5394.00,1.1436
5393.00,1.1435
5392.00,1.1435
5391.00,1.1435
5390.00,1.1434
5389.00,1.1434
5388.00,1.1433
5387.00,1.1433
5386.00,1.1433
5385.00,1.1433
5384.00,1.1433
5383.00,1.1432
5382.00,1.1432
5381.00,1.1431
5380.00,1.1431
5379.00,1.1431
5378.00,1.1431
5377.00,1.1430
5376.00,1.1430
5375.00,1.1431
5374.00,1.1430
5373.00,1.1430
5372.00,1.1430
5371.00,1.1431
5370.00,1.1431
5369.00,1.1431
5368.00,1.1431
5367.00,1.1432
5366.00,1.1432
5365.00,1.1433
5364.00,1.1433
5363.00,1.1434
5362.00,1.1434
5361.00,1.1434
5360.00,1.1434
5359.00,1.1433
5358.00,1.1432
5357.00,1.1432
5356.00,1.1432
5355.00,1.1431
5354.00,1.1431
5353.00,1.1431
5352.00,1.1432
5351.00,1.1432
5350.00,1.1432
5349.00,1.1433
5348.00,1.1434
5347.00,1.1434
5346.00,1.1434
5345.00,1.1433
5344.00,1.1432
5343.00,1.1433
5342.00,1.1433
5341.00,1.1433
5340.00,1.1432
5339.00,1.1433
5338.00,1.1434
5337.00,1.1436
5336.00,1.1437
5335.00,1.1437
5334.00,1.1437
5333.00,1.1436
5332.00,1.1437
5331.00,1.1437
5330.00,1.1437
5329.00,1.1437
5328.00,1.1437
5327.00,1.1437
5326.00,1.1438
5325.00,1.1438
5324.00,1.1437
5323.00,1.1436
5322.00,1.1436
5321.00,1.1436
5320.00,1.1436
5319.00,1.1437
5318.00,1.1437
5317.00,1.1437
5316.00,1.1438
5315.00,1.1438
5314.00,1.1438
5313.00,1.1438
5312.00,1.1438
5311.00,1.1439
5310.00,1.1439
5309.00,1.1438
5308.00,1.1437
5307.00,1.1437
5306.00,1.1437
5305.00,1.1438
5304.00,1.1438
5303.00,1.1439
5302.00,1.1440
5301.00,1.1440
5300.00,1.1440
5299.00,1.1440
5298.00,1.1440
5297.00,1.1439
5296.00,1.1439
5295.00,1.1439
5294.00,1.1439
5293.00,1.1439
5292.00,1.1439
5291.00,1.1439
5290.00,1.1440
5289.00,1.1440
5288.00,1.1441
5287.00,1.1442
5286.00,1.1442
5285.00,1.1443
5284.00,1.1444
5283.00,1.1444
5282.00,1.1443
5281.00,1.1442
5280.00,1.1441
5279.00,1.1441
5278.00,1.1442
5277.00,1.1442
5276.00,1.1443
5275.00,1.1444
5274.00,1.1444
5273.00,1.1444
5272.00,1.1444
5271.00,1.1444
5270.00,1.1444
5269.00,1.1445
5268.00,1.1445
5267.00,1.1446
5266.00,1.1446
5265.00,1.1446
5264.00,1.1447
5263.00,1.1447
5262.00,1.1447
5261.00,1.1447
5260.00,1.1446
5259.00,1.1447
5258.00,1.1447
5257.00,1.1447
5256.00,1.1448
5255.00,1.1448
5254.00,1.1449
5253.00,1.1450
5252.00,1.1451
5251.00,1.1452
5250.00,1.1452
5249.00,1.1452
5248.00,1.1452
5247.00,1.1452
5246.00,1.1452
5245.00,1.1452
5244.00,1.1453
5243.00,1.1454
5242.00,1.1456
5241.00,1.1457
5240.00,1.1458
5239.00,1.1458
5238.00,1.1459
5237.00,1.1459
5236.00,1.1460
5235.00,1.1460
5234.00,1.1460
5233.00,1.1460
5232.00,1.1460
5231.00,1.1461
5230.00,1.1462
5229.00,1.1463
5228.00,1.1463
5227.00,1.1464
5226.00,1.1464
5225.00,1.1464
5224.00,1.1465
5223.00,1.1466
5222.00,1.1467
5221.00,1.1467
5220.00,1.1468
5219.00,1.1468
5218.00,1.1469
5217.00,1.1470
5216.00,1.1471
5215.00,1.1472
5214.00,1.1472
5213.00,1.1472
5212.00,1.1472
5211.00,1.1473
5210.00,1.1473
5209.00,1.1473
5208.00,1.1473
5207.00,1.1473
5206.00,1.1474
5205.00,1.1474
5204.00,1.1475
5203.00,1.1476
5202.00,1.1477
5201.00,1.1478
5200.00,1.1479
5199.00,1.1480
5198.00,1.1481
5197.00,1.1482
5196.00,1.1483
5195.00,1.1484
5194.00,1.1485
5193.00,1.1484
5192.00,1.1484
5191.00,1.1484
5190.00,1.1485
5189.00,1.1486
5188.00,1.1487
5187.00,1.1488
5186.00,1.1489
5185.00,1.1489
5184.00,1.1489
5183.00,1.1489
5182.00,1.1489
5181.00,1.1490
5180.00,1.1491
5179.00,1.1492
5178.00,1.1493
5177.00,1.1493
5176.00,1.1494
5175.00,1.1494
5174.00,1.1495
5173.00,1.1495
5172.00,1.1496
5171.00,1.1496
5170.00,1.1496
5169.00,1.1497
5168.00,1.1497
5167.00,1.1498
5166.00,1.1499
5165.00,1.1500
5164.00,1.1500
5163.00,1.1501
5162.00,1.1501
5161.00,1.1501
5160.00,1.1502
5159.00,1.1502
5158.00,1.1503
5157.00,1.1503
5156.00,1.1504
5155.00,1.1505
5154.00,1.1506
5153.00,1.1507
5152.00,1.1508
5151.00,1.1509
5150.00,1.1510
5149.00,1.1511
5148.00,1.1511
5147.00,1.1511
5146.00,1.1511
5145.00,1.1511
5144.00,1.1512
5143.00,1.1513
5142.00,1.1514
5141.00,1.1514
5140.00,1.1515
5139.00,1.1515
5138.00,1.1515
5137.00,1.1515
5136.00,1.1515
5135.00,1.1516
5134.00,1.1516
5133.00,1.1516
5132.00,1.1516
5131.00,1.1516
5130.00,1.1516
5129.00,1.1517
5128.00,1.1517
5127.00,1.1518
5126.00,1.1519
5125.00,1.1519
5124.00,1.1520
5123.00,1.1520
5122.00,1.1520
5121.00,1.1520
5120.00,1.1521
5119.00,1.1521
5118.00,1.1521
5117.00,1.1521
5116.00,1.1521
5115.00,1.1521
5114.00,1.1521
5113.00,1.1521
5112.00,1.1521
5111.00,1.1521
5110.00,1.1520
5109.00,1.1520
5108.00,1.1520
5107.00,1.1520
5106.00,1.1521
5105.00,1.1521
5104.00,1.1521
5103.00,1.1522
5102.00,1.1522
5101.00,1.1523
5100.00,1.1523
5099.00,1.1524
5098.00,1.1524
5097.00,1.1524
5096.00,1.1524
5095.00,1.1524
5094.00,1.1524
5093.00,1.1525
5092.00,1.1526
5091.00,1.1526
5090.00,1.1526
5089.00,1.1526
5088.00,1.1525
5087.00,1.1525
5086.00,1.1525
5085.00,1.1525
5084.00,1.1525
5083.00,1.1524
5082.00,1.1524
5081.00,1.1524
5080.00,1.1524
5079.00,1.1524
5078.00,1.1525
5077.00,1.1525
5076.00,1.1526
5075.00,1.1526
5074.00,1.1526
5073.00,1.1526
5072.00,1.1526
5071.00,1.1526
5070.00,1.1526
5069.00,1.1526
5068.00,1.1526
5067.00,1.1526
5066.00,1.1526
5065.00,1.1526
5064.00,1.1526
5063.00,1.1525
5062.00,1.1525
5061.00,1.1525
5060.00,1.1525
5059.00,1.1526
5058.00,1.1526
5057.00,1.1526
5056.00,1.1527
5055.00,1.1527
5054.00,1.1527
5053.00,1.1527
5052.00,1.1528
5051.00,1.1528
5050.00,1.1528
5049.00,1.1528
5048.00,1.1528
5047.00,1.1528
5046.00,1.1528
5045.00,1.1527
5044.00,1.1527
5043.00,1.1528
5042.00,1.1527
5041.00,1.1527
5040.00,1.1527
5039.00,1.1527
5038.00,1.1528
5037.00,1.1528
5036.00,1.1528
5035.00,1.1528
5034.00,1.1528
5033.00,1.1527
5032.00,1.1526
5031.00,1.1526
5030.00,1.1526
5029.00,1.1527
5028.00,1.1527
5027.00,1.1528
5026.00,1.1528
5025.00,1.1528
5024.00,1.1528
5023.00,1.1527
5022.00,1.1527
5021.00,1.1526
5020.00,1.1526
5019.00,1.1526
5018.00,1.1526
5017.00,1.1526
5016.00,1.1526
5015.00,1.1526
5014.00,1.1526
5013.00,1.1526
5012.00,1.1526
5011.00,1.1526
5010.00,1.1526
5009.00,1.1526
5008.00,1.1526
5007.00,1.1525
5006.00,1.1525
5005.00,1.1524
5004.00,1.1523
5003.00,1.1523
5002.00,1.1523
5001.00,1.1523
5000.00,1.1524
4999.00,1.1524
4998.00,1.1524
4997.00,1.1524
4996.00,1.1524
4995.00,1.1524
4994.00,1.1524
4993.00,1.1524
4992.00,1.1523
4991.00,1.1522
4990.00,1.1522
4989.00,1.1522
4988.00,1.1522
4987.00,1.1522
4986.00,1.1522
4985.00,1.1522
4984.00,1.1522
4983.00,1.1521
4982.00,1.1521
4981.00,1.1520
4980.00,1.1520
4979.00,1.1520
4978.00,1.1520
4977.00,1.1520
4976.00,1.1520
4975.00,1.1520
4974.00,1.1520
4973.00,1.1520
4972.00,1.1521
4971.00,1.1521
4970.00,1.1521
4969.00,1.1521
4968.00,1.1521
4967.00,1.1521
4966.00,1.1521
4965.00,1.1520
4964.00,1.1520
4963.00,1.1519
4962.00,1.1519
4961.00,1.1519
4960.00,1.1518
4959.00,1.1519
4958.00,1.1519
4957.00,1.1520
4956.00,1.1520
4955.00,1.1520
4954.00,1.1520
4953.00,1.1520
4952.00,1.1520
4951.00,1.1520
4950.00,1.1520
4949.00,1.1519
4948.00,1.1519
4947.00,1.1519
4946.00,1.1520
4945.00,1.1520
4944.00,1.1520
4943.00,1.1519
4942.00,1.1519
4941.00,1.1519
4940.00,1.1519
4939.00,1.1518
4938.00,1.1518
4937.00,1.1518
4936.00,1.1517
4935.00,1.1517
4934.00,1.1517
4933.00,1.1516
4932.00,1.1515
4931.00,1.1515
4930.00,1.1515
4929.00,1.1516
4928.00,1.1517
4927.00,1.1517
4926.00,1.1517
4925.00,1.1517
4924.00,1.1516
4923.00,1.1516
4922.00,1.1516
4921.00,1.1515
4920.00,1.1515
4919.00,1.1515
4918.00,1.1514
4917.00,1.1513
4916.00,1.1512
4915.00,1.1512
4914.00,1.1512
4913.00,1.1512
4912.00,1.1512
4911.00,1.1512
4910.00,1.1512
4909.00,1.1511
4908.00,1.1511
4907.00,1.1511
4906.00,1.1511
4905.00,1.1511
4904.00,1.1511
4903.00,1.1511
4902.00,1.1511
4901.00,1.1511
4900.00,1.1510
4899.00,1.1509
4898.00,1.1509
4897.00,1.1508
4896.00,1.1507
4895.00,1.1507
4894.00,1.1507
4893.00,1.1507
4892.00,1.1507
4891.00,1.1507
4890.00,1.1507
4889.00,1.1506
4888.00,1.1505
4887.00,1.1504
4886.00,1.1504
4885.00,1.1504
4884.00,1.1505
4883.00,1.1505
4882.00,1.1505
4881.00,1.1504
4880.00,1.1503
4879.00,1.1503
4878.00,1.1503
4877.00,1.1503
4876.00,1.1503
4875.00,1.1503
4874.00,1.1503
4873.00,1.1502
4872.00,1.1502
4871.00,1.1501
4870.00,1.1501
4869.00,1.1501
4868.00,1.1501
4867.00,1.1502
4866.00,1.1502
4865.00,1.1502
4864.00,1.1502
4863.00,1.1501
4862.00,1.1501
4861.00,1.1501
4860.00,1.1501
4859.00,1.1500
4858.00,1.1500
4857.00,1.1499
4856.00,1.1498
4855.00,1.1498
4854.00,1.1498
4853.00,1.1498
4852.00,1.1498
4851.00,1.1498
4850.00,1.1498
4849.00,1.1498
4848.00,1.1498
4847.00,1.1497
4846.00,1.1497
4845.00,1.1497
4844.00,1.1497
4843.00,1.1497
4842.00,1.1496
4841.00,1.1496
4840.00,1.1495
4839.00,1.1494
4838.00,1.1494
4837.00,1.1493
4836.00,1.1493
4835.00,1.1494
4834.00,1.1494
4833.00,1.1493
4832.00,1.1493
4831.00,1.1492
4830.00,1.1492
4829.00,1.1491
4828.00,1.1491
4827.00,1.1491
4826.00,1.1491
4825.00,1.1491
4824.00,1.1491
4823.00,1.1492
4822.00,1.1492
4821.00,1.1492
4820.00,1.1492
4819.00,1.1491
4818.00,1.1490
4817.00,1.1489
4816.00,1.1488
4815.00,1.1487
4814.00,1.1487
4813.00,1.1487
4812.00,1.1487
4811.00,1.1486
4810.00,1.1485
4809.00,1.1484
4808.00,1.1484
4807.00,1.1484
4806.00,1.1484
4805.00,1.1485
4804.00,1.1485
4803.00,1.1484
4802.00,1.1484
4801.00,1.1483
4800.00,1.1482
4799.00,1.1482
4798.00,1.1482
4797.00,1.1482
4796.00,1.1482
4795.00,1.1481
4794.00,1.1481
4793.00,1.1480
4792.00,1.1480
4791.00,1.1479
4790.00,1.1479
4789.00,1.1478
4788.00,1.1478
4787.00,1.1477
4786.00,1.1477
4785.00,1.1477
4784.00,1.1477
4783.00,1.1477
4782.00,1.1477
4781.00,1.1478
4780.00,1.1478
4779.00,1.1478
4778.00,1.1477
4777.00,1.1477
4776.00,1.1476
4775.00,1.1476
4774.00,1.1475
4773.00,1.1474
4772.00,1.1473
4771.00,1.1473
4770.00,1.1473
4769.00,1.1473
4768.00,1.1473
4767.00,1.1472
4766.00,1.1472
4765.00,1.1471
4764.00,1.1471
4763.00,1.1470
4762.00,1.1469
4761.00,1.1468
4760.00,1.1467
4759.00,1.1467
4758.00,1.1466
4757.00,1.1466
4756.00,1.1466
4755.00,1.1465
4754.00,1.1464
4753.00,1.1463
4752.00,1.1463
4751.00,1.1462
4750.00,1.1461
4749.00,1.1460
4748.00,1.1459
4747.00,1.1458
4746.00,1.1457
4745.00,1.1456
4744.00,1.1455
4743.00,1.1455
4742.00,1.1454
4741.00,1.1453
4740.00,1.1453
4739.00,1.1453
4738.00,1.1453
4737.00,1.1452
4736.00,1.1452
4735.00,1.1451
4734.00,1.1451
4733.00,1.1450
4732.00,1.1450
4731.00,1.1449
4730.00,1.1449
4729.00,1.1448
4728.00,1.1447
4727.00,1.1447
4726.00,1.1446
4725.00,1.1446
4724.00,1.1445
4723.00,1.1445
4722.00,1.1445
4721.00,1.1444
4720.00,1.1444
4719.00,1.1444
4718.00,1.1444
4717.00,1.1444
4716.00,1.1444
4715.00,1.1444
4714.00,1.1444
4713.00,1.1444
4712.00,1.1444
4711.00,1.1444
4710.00,1.1444
4709.00,1.1444
4708.00,1.1444
4707.00,1.1444
4706.00,1.1444
4705.00,1.1444
4704.00,1.1444
4703.00,1.1445
4702.00,1.1446
4701.00,1.1446
4700.00,1.1447
4699.00,1.1447
4698.00,1.1447
4697.00,1.1447
4696.00,1.1446
4695.00,1.1445
4694.00,1.1444
4693.00,1.1443
4692.00,1.1442
4691.00,1.1441
4690.00,1.1440
4689.00,1.1439
4688.00,1.1438
4687.00,1.1438
4686.00,1.1438
4685.00,1.1438
4684.00,1.1437
4683.00,1.1437
4682.00,1.1437
4681.00,1.1437
4680.00,1.1437
4679.00,1.1437
4678.00,1.1437
4677.00,1.1436
4676.00,1.1436
4675.00,1.1436
4674.00,1.1435
4673.00,1.1435
4672.00,1.1435
4671.00,1.1434
4670.00,1.1434
4669.00,1.1434
4668.00,1.1434
4667.00,1.1435
4666.00,1.1435
4665.00,1.1435
4664.00,1.1435
4663.00,1.1435
4662.00,1.1435
4661.00,1.1435
4660.00,1.1434
4659.00,1.1434
4658.00,1.1434
4657.00,1.1434
4656.00,1.1434
4655.00,1.1434
4654.00,1.1434
4653.00,1.1434
4652.00,1.1434
4651.00,1.1434
4650.00,1.1434
4649.00,1.1434
4648.00,1.1434
4647.00,1.1434
4646.00,1.1433
4645.00,1.1433
4644.00,1.1433
4643.00,1.1432
4642.00,1.1432
4641.00,1.1432
4640.00,1.1432
4639.00,1.1433
4638.00,1.1433
4637.00,1.1434
4636.00,1.1434
4635.00,1.1434
4634.00,1.1434
4633.00,1.1433
4632.00,1.1433
4631.00,1.1433
4630.00,1.1433
4629.00,1.1433
4628.00,1.1433
4627.00,1.1433
4626.00,1.1433
4625.00,1.1433
4624.00,1.1434
4623.00,1.1434
4622.00,1.1434
4621.00,1.1434
4620.00,1.1434
4619.00,1.1434
4618.00,1.1434
4617.00,1.1433
4616.00,1.1432
4615.00,1.1432
4614.00,1.1432
4613.00,1.1432
4612.00,1.1432
4611.00,1.1432
4610.00,1.1433
4609.00,1.1433
4608.00,1.1433
4607.00,1.1433
4606.00,1.1433
4605.00,1.1434
4604.00,1.1434
4603.00,1.1434
4602.00,1.1434
4601.00,1.1433
4600.00,1.1433
4599.00,1.1432
4598.00,1.1432
4597.00,1.1431
4596.00,1.1431
4595.00,1.1431
4594.00,1.1431
4593.00,1.1431
4592.00,1.1431
4591.00,1.1432
4590.00,1.1432
4589.00,1.1432
4588.00,1.1432
4587.00,1.1431
4586.00,1.1431
4585.00,1.1430
4584.00,1.1430
4583.00,1.1430
4582.00,1.1430
4581.00,1.1430
4580.00,1.1430
4579.00,1.1430
4578.00,1.1431
4577.00,1.1431
4576.00,1.1431
4575.00,1.1431
4574.00,1.1431
4573.00,1.1431
4572.00,1.1431
4571.00,1.1431
4570.00,1.1431
4569.00,1.1431
4568.00,1.1431
4567.00,1.1431
4566.00,1.1431
4565.00,1.1431
4564.00,1.1431
4563.00,1.1431
4562.00,1.1431
4561.00,1.1430
4560.00,1.1430
4559.00,1.1429
4558.00,1.1429
4557.00,1.1429
4556.00,1.1430
4555.00,1.1430
4554.00,1.1430
4553.00,1.1430
4552.00,1.1430
4551.00,1.1429
4550.00,1.1429
4549.00,1.1428
4548.00,1.1428
4547.00,1.1429
4546.00,1.1429
4545.00,1.1429
4544.00,1.1429
4543.00,1.1429
4542.00,1.1429
4541.00,1.1428
4540.00,1.1427
4539.00,1.1427
4538.00,1.1427
4537.00,1.1427
4536.00,1.1427
4535.00,1.1427
4534.00,1.1427
4533.00,1.1426
4532.00,1.1426
4531.00,1.1427
4530.00,1.1427
4529.00,1.1427
4528.00,1.1427
4527.00,1.1427
4526.00,1.1427
4525.00,1.1427
4524.00,1.1426
4523.00,1.1426
4522.00,1.1426
4521.00,1.1426
4520.00,1.1425
4519.00,1.1425
4518.00,1.1425
4517.00,1.1424
4516.00,1.1424
4515.00,1.1424
4514.00,1.1424
4513.00,1.1424
4512.00,1.1424
4511.00,1.1425
4510.00,1.1425
4509.00,1.1425
4508.00,1.1425
4507.00,1.1424
4506.00,1.1424
4505.00,1.1424
4504.00,1.1424
4503.00,1.1424
4502.00,1.1423
4501.00,1.1423
4500.00,1.1422
4499.00,1.1422
4498.00,1.1422
4497.00,1.1422
4496.00,1.1422
4495.00,1.1423
4494.00,1.1423
4493.00,1.1423
4492.00,1.1423
4491.00,1.1423
4490.00,1.1423
4489.00,1.1423
4488.00,1.1423
4487.00,1.1422
4486.00,1.1422
4485.00,1.1422
4484.00,1.1423
4483.00,1.1423
4482.00,1.1424
4481.00,1.1424
4480.00,1.1424
4479.00,1.1424
4478.00,1.1424
4477.00,1.1423
4476.00,1.1423
4475.00,1.1423
4474.00,1.1422
4473.00,1.1422
4472.00,1.1422
4471.00,1.1422
4470.00,1.1423
4469.00,1.1423
4468.00,1.1423
4467.00,1.1423
4466.00,1.1423
4465.00,1.1423
4464.00,1.1422
4463.00,1.1422
4462.00,1.1422
4461.00,1.1422
4460.00,1.1422
4459.00,1.1422
4458.00,1.1422
4457.00,1.1422
4456.00,1.1422
4455.00,1.1422
4454.00,1.1422
4453.00,1.1422
4452.00,1.1422
4451.00,1.1422
4450.00,1.1421
4449.00,1.1421
4448.00,1.1421
4447.00,1.1421
4446.00,1.1421
4445.00,1.1421
4444.00,1.1421
4443.00,1.1421
4442.00,1.1421
4441.00,1.1420
4440.00,1.1420
4439.00,1.1421
4438.00,1.1421
4437.00,1.1421
4436.00,1.1421
4435.00,1.1421
4434.00,1.1421
4433.00,1.1420
4432.00,1.1420
4431.00,1.1420
4430.00,1.1420
4429.00,1.1420
4428.00,1.1420
4427.00,1.1420
4426.00,1.1420
4425.00,1.1420
4424.00,1.1421
4423.00,1.1421
4422.00,1.1421
4421.00,1.1421
4420.00,1.1421
4419.00,1.1421
4418.00,1.1420
4417.00,1.1420
4416.00,1.1420
4415.00,1.1420
4414.00,1.1420
4413.00,1.1419
4412.00,1.1419
4411.00,1.1419
4410.00,1.1419
4409.00,1.1419
4408.00,1.1419
4407.00,1.1419
4406.00,1.1419
4405.00,1.1419
4404.00,1.1419
4403.00,1.1420
4402.00,1.1420
4401.00,1.1420
4400.00,1.1419
4399.00,1.1419
4398.00,1.1419
4397.00,1.1419
4396.00,1.1419
4395.00,1.1419
4394.00,1.1420
4393.00,1.1420
4392.00,1.1420
4391.00,1.1421
4390.00,1.1421
4389.00,1.1421
4388.00,1.1421
4387.00,1.1421
4386.00,1.1421
4385.00,1.1421
4384.00,1.1420
4383.00,1.1420
4382.00,1.1420
4381.00,1.1420
4380.00,1.1421
4379.00,1.1421
4378.00,1.1421
4377.00,1.1421
4376.00,1.1421
4375.00,1.1421
4374.00,1.1421
4373.00,1.1422
4372.00,1.1422
4371.00,1.1422
4370.00,1.1422
4369.00,1.1423
4368.00,1.1423
4367.00,1.1423
4366.00,1.1423
4365.00,1.1423
4364.00,1.1422
4363.00,1.1423
4362.00,1.1423
4361.00,1.1424
4360.00,1.1424
4359.00,1.1424
4358.00,1.1425
4357.00,1.1424
4356.00,1.1424
4355.00,1.1423
4354.00,1.1423
4353.00,1.1423
4352.00,1.1423
4351.00,1.1424
4350.00,1.1424
4349.00,1.1423
4348.00,1.1423
4347.00,1.1423
4346.00,1.1424
4345.00,1.1424
4344.00,1.1424
4343.00,1.1425
4342.00,1.1424
4341.00,1.1424
4340.00,1.1424
4339.00,1.1424
4338.00,1.1424
4337.00,1.1425
4336.00,1.1425
4335.00,1.1425
4334.00,1.1425
4333.00,1.1425
4332.00,1.1425
4331.00,1.1425
4330.00,1.1425
4329.00,1.1425
4328.00,1.1425
4327.00,1.1425
4326.00,1.1425
4325.00,1.1425
4324.00,1.1425
4323.00,1.1426
4322.00,1.1426
4321.00,1.1426
4320.00,1.1426
4319.00,1.1426
4318.00,1.1426
4317.00,1.1426
4316.00,1.1427
4315.00,1.1427
4314.00,1.1427
4313.00,1.1426
4312.00,1.1426
4311.00,1.1426
4310.00,1.1426
4309.00,1.1426
4308.00,1.1427
4307.00,1.1427
4306.00,1.1427
4305.00,1.1428
4304.00,1.1428
4303.00,1.1428
4302.00,1.1428
4301.00,1.1428
4300.00,1.1428
4299.00,1.1427
4298.00,1.1427
4297.00,1.1427
4296.00,1.1427
4295.00,1.1427
4294.00,1.1428
4293.00,1.1428
4292.00,1.1429
4291.00,1.1429
4290.00,1.1430
4289.00,1.1430
4288.00,1.1430
4287.00,1.1430
4286.00,1.1430
4285.00,1.1430
4284.00,1.1430
4283.00,1.1431
4282.00,1.1431
4281.00,1.1432
4280.00,1.1432
4279.00,1.1432
4278.00,1.1432
4277.00,1.1431
4276.00,1.1431
4275.00,1.1431
4274.00,1.1431
4273.00,1.1432
4272.00,1.1432
4271.00,1.1432
4270.00,1.1432
4269.00,1.1432
4268.00,1.1432
4267.00,1.1432
4266.00,1.1431
4265.00,1.1431
4264.00,1.1432
4263.00,1.1432
4262.00,1.1433
4261.00,1.1433
4260.00,1.1433
4259.00,1.1433
4258.00,1.1433
4257.00,1.1433
4256.00,1.1433
4255.00,1.1433
4254.00,1.1434
4253.00,1.1434
4252.00,1.1434
4251.00,1.1434
4250.00,1.1434
4249.00,1.1434
4248.00,1.1434
4247.00,1.1434
4246.00,1.1434
4245.00,1.1434
4244.00,1.1433
4243.00,1.1433
4242.00,1.1433
4241.00,1.1433
4240.00,1.1434
4239.00,1.1434
4238.00,1.1433
4237.00,1.1433
4236.00,1.1433
4235.00,1.1434
4234.00,1.1434
4233.00,1.1434
4232.00,1.1434
4231.00,1.1434
4230.00,1.1434
4229.00,1.1433
4228.00,1.1433
4227.00,1.1432
4226.00,1.1432
4225.00,1.1433
4224.00,1.1433
4223.00,1.1433
4222.00,1.1434
4221.00,1.1434
4220.00,1.1434
4219.00,1.1434
4218.00,1.1434
4217.00,1.1434
4216.00,1.1434
4215.00,1.1434
4214.00,1.1434
4213.00,1.1434
4212.00,1.1434
4211.00,1.1434
4210.00,1.1433
4209.00,1.1433
4208.00,1.1432
4207.00,1.1432
4206.00,1.1432
4205.00,1.1432
4204.00,1.1432
4203.00,1.1433
4202.00,1.1433
4201.00,1.1433
4200.00,1.1433
4199.00,1.1433
4198.00,1.1433
4197.00,1.1433
4196.00,1.1433
4195.00,1.1433
4194.00,1.1433
4193.00,1.1433
4192.00,1.1433
4191.00,1.1433
4190.00,1.1433
4189.00,1.1433
4188.00,1.1433
4187.00,1.1433
4186.00,1.1433
4185.00,1.1433
4184.00,1.1433
4183.00,1.1433
4182.00,1.1433
4181.00,1.1434
4180.00,1.1434
4179.00,1.1434
4178.00,1.1434
4177.00,1.1434
4176.00,1.1434
4175.00,1.1434
4174.00,1.1434
4173.00,1.1433
4172.00,1.1433
4171.00,1.1433
4170.00,1.1433
4169.00,1.1433
4168.00,1.1433
4167.00,1.1433
4166.00,1.1433
4165.00,1.1432
4164.00,1.1432
4163.00,1.1432
4162.00,1.1432
4161.00,1.1432
4160.00,1.1431
4159.00,1.1431
4158.00,1.1431
4157.00,1.1431
4156.00,1.1431
4155.00,1.1431
4154.00,1.1432
4153.00,1.1432
4152.00,1.1432
4151.00,1.1432
4150.00,1.1431
4149.00,1.1431
4148.00,1.1431
4147.00,1.1431
4146.00,1.1431
4145.00,1.1430
4144.00,1.1430
4143.00,1.1430
4142.00,1.1430
4141.00,1.1430
4140.00,1.1429
4139.00,1.1429
4138.00,1.1429
4137.00,1.1429
4136.00,1.1429
4135.00,1.1429
4134.00,1.1429
4133.00,1.1429
4132.00,1.1429
4131.00,1.1428
4130.00,1.1428
4129.00,1.1428
4128.00,1.1427
4127.00,1.1427
4126.00,1.1427
4125.00,1.1427
4124.00,1.1427
4123.00,1.1427
4122.00,1.1428
4121.00,1.1428
4120.00,1.1428
4119.00,1.1428
4118.00,1.1428
4117.00,1.1427
4116.00,1.1427
4115.00,1.1427
4114.00,1.1427
4113.00,1.1426
4112.00,1.1427
4111.00,1.1427
4110.00,1.1427
4109.00,1.1427
4108.00,1.1427
4107.00,1.1427
4106.00,1.1427
4105.00,1.1426
4104.00,1.1426
4103.00,1.1425
4102.00,1.1425
4101.00,1.1425
4100.00,1.1425
4099.00,1.1425
4098.00,1.1425
4097.00,1.1425
4096.00,1.1425
4095.00,1.1425
4094.00,1.1425
4093.00,1.1425
4092.00,1.1425
4091.00,1.1425
4090.00,1.1425
4089.00,1.1425
4088.00,1.1426
4087.00,1.1426
4086.00,1.1426
4085.00,1.1426
4084.00,1.1426
4083.00,1.1426
4082.00,1.1426
4081.00,1.1425
4080.00,1.1425
4079.00,1.1425
4078.00,1.1425
4077.00,1.1424
4076.00,1.1424
4075.00,1.1424
4074.00,1.1424
4073.00,1.1425
4072.00,1.1425
4071.00,1.1425
4070.00,1.1424
4069.00,1.1424
4068.00,1.1423
4067.00,1.1423
4066.00,1.1423
4065.00,1.1423
4064.00,1.1423
4063.00,1.1423
4062.00,1.1422
4061.00,1.1422
4060.00,1.1422
4059.00,1.1422
4058.00,1.1422
4057.00,1.1421
4056.00,1.1421
4055.00,1.1421
4054.00,1.1421
4053.00,1.1421
4052.00,1.1421
4051.00,1.1421
4050.00,1.1421
4049.00,1.1421
4048.00,1.1421
4047.00,1.1420
4046.00,1.1420
4045.00,1.1420
4044.00,1.1420
4043.00,1.1420
4042.00,1.1419
4041.00,1.1419
4040.00,1.1419
4039.00,1.1419
4038.00,1.1419
4037.00,1.1419
4036.00,1.1419
4035.00,1.1419
4034.00,1.1418
4033.00,1.1418
4032.00,1.1418
4031.00,1.1418
4030.00,1.1418
4029.00,1.1418
4028.00,1.1418
4027.00,1.1418
4026.00,1.1417
4025.00,1.1417
4024.00,1.1417
4023.00,1.1416
4022.00,1.1416
4021.00,1.1416
4020.00,1.1416
4019.00,1.1416
4018.00,1.1416
4017.00,1.1416
4016.00,1.1416
4015.00,1.1416
4014.00,1.1415
4013.00,1.1415
4012.00,1.1415
4011.00,1.1414
4010.00,1.1414
4009.00,1.1414
4008.00,1.1413
4007.00,1.1413
4006.00,1.1412
4005.00,1.1412
4004.00,1.1412
4003.00,1.1412
4002.00,1.1412
4001.00,1.1412
4000.00,1.1412
3999.00,1.1411
3998.00,1.1411
3997.00,1.1411
3996.00,1.1411
3995.00,1.1411
3994.00,1.1411
3993.00,1.1411
3992.00,1.1411
3991.00,1.1410
3990.00,1.1410
3989.00,1.1409
3988.00,1.1409
3987.00,1.1409
3986.00,1.1408
3985.00,1.1408
3984.00,1.1407
3983.00,1.1407
3982.00,1.1408
3981.00,1.1408
3980.00,1.1408
3979.00,1.1407
3978.00,1.1407
3977.00,1.1406
3976.00,1.1405
3975.00,1.1405
3974.00,1.1405
3973.00,1.1405
3972.00,1.1405
3971.00,1.1404
3970.00,1.1403
3969.00,1.1403
3968.00,1.1402
3967.00,1.1402
3966.00,1.1401
3965.00,1.1401
3964.00,1.1400
3963.00,1.1400
3962.00,1.1399
3961.00,1.1399
3960.00,1.1399
3959.00,1.1398
3958.00,1.1398
3957.00,1.1398
3956.00,1.1397
3955.00,1.1397
3954.00,1.1397
3953.00,1.1396
3952.00,1.1396
3951.00,1.1395
3950.00,1.1394
3949.00,1.1393
3948.00,1.1392
3947.00,1.1392
3946.00,1.1392
3945.00,1.1391
3944.00,1.1391
3943.00,1.1390
3942.00,1.1389
3941.00,1.1389
3940.00,1.1388
3939.00,1.1387
3938.00,1.1386
3937.00,1.1385
3936.00,1.1384
3935.00,1.1384
3934.00,1.1383
3933.00,1.1382
3932.00,1.1382
3931.00,1.1382
3930.00,1.1381
3929.00,1.1381
3928.00,1.1381
3927.00,1.1380
3926.00,1.1379
3925.00,1.1378
3924.00,1.1378
3923.00,1.1377
3922.00,1.1376
3921.00,1.1374
3920.00,1.1373
3919.00,1.1372
3918.00,1.1371
3917.00,1.1370
3916.00,1.1370
3915.00,1.1370
3914.00,1.1369
3913.00,1.1368
3912.00,1.1367
3911.00,1.1367
3910.00,1.1367
3909.00,1.1367
3908.00,1.1367
3907.00,1.1367
3906.00,1.1366
3905.00,1.1364
3904.00,1.1362
3903.00,1.1360
3902.00,1.1358
3901.00,1.1356
3900.00,1.1355
3899.00,1.1356
3898.00,1.1357
3897.00,1.1357
3896.00,1.1357
3895.00,1.1357
3894.00,1.1357
3893.00,1.1357
3892.00,1.1355
3891.00,1.1354
3890.00,1.1353
3889.00,1.1351
3888.00,1.1349
3887.00,1.1346
3886.00,1.1346
3885.00,1.1347
3884.00,1.1350
3883.00,1.1350
3882.00,1.1349
3881.00,1.1348
3880.00,1.1347
3879.00,1.1347
3878.00,1.1346
3877.00,1.1345
3876.00,1.1344
3875.00,1.1343
3874.00,1.1343
3873.00,1.1344
3872.00,1.1343
3871.00,1.1339
3870.00,1.1337
3869.00,1.1337
3868.00,1.1338
3867.00,1.1337
3866.00,1.1336
3865.00,1.1336
3864.00,1.1336
3863.00,1.1336
3862.00,1.1334
3861.00,1.1332
3860.00,1.1331
3859.00,1.1329
3858.00,1.1328
3857.00,1.1328
3856.00,1.1329
3855.00,1.1329
3854.00,1.1326
3853.00,1.1324
3852.00,1.1324
3851.00,1.1323
3850.00,1.1322
3849.00,1.1322
3848.00,1.1322
3847.00,1.1323
3846.00,1.1323
3845.00,1.1323
3844.00,1.1323
3843.00,1.1322
3842.00,1.1322
3841.00,1.1321
3840.00,1.1320
3839.00,1.1319
3838.00,1.1319
3837.00,1.1319
3836.00,1.1318
3835.00,1.1317
3834.00,1.1316
3833.00,1.1314
3832.00,1.1313
3831.00,1.1313
3830.00,1.1313
3829.00,1.1313
3828.00,1.1312
3827.00,1.1311
3826.00,1.1311
3825.00,1.1311
3824.00,1.1311
3823.00,1.1309
3822.00,1.1307
3821.00,1.1306
3820.00,1.1306
3819.00,1.1305
3818.00,1.1303
3817.00,1.1301
3816.00,1.1301
3815.00,1.1303
3814.00,1.1304
3813.00,1.1303
3812.00,1.1301
3811.00,1.1301
3810.00,1.1301
3809.00,1.1300
3808.00,1.1298
3807.00,1.1298
3806.00,1.1298
3805.00,1.1297
3804.00,1.1296
3803.00,1.1295
3802.00,1.1295
3801.00,1.1297
3800.00,1.1299
3799.00,1.1299
3798.00,1.1297
3797.00,1.1295
3796.00,1.1294
3795.00,1.1294
3794.00,1.1294
3793.00,1.1293
3792.00,1.1293
3791.00,1.1294
3790.00,1.1294
3789.00,1.1294
3788.00,1.1295
3787.00,1.1295
3786.00,1.1294
3785.00,1.1293
3784.00,1.1293
3783.00,1.1292
3782.00,1.1291
3781.00,1.1290
3780.00,1.1288
3779.00,1.1288
3778.00,1.1288
3777.00,1.1287
3776.00,1.1287
3775.00,1.1286
3774.00,1.1287
3773.00,1.1287
3772.00,1.1286
3771.00,1.1285
3770.00,1.1284
3769.00,1.1284
3768.00,1.1284
3767.00,1.1282
3766.00,1.1281
3765.00,1.1280
3764.00,1.1281
3763.00,1.1281
3762.00,1.1280
3761.00,1.1279
3760.00,1.1279
3759.00,1.1279
3758.00,1.1278
3757.00,1.1276
3756.00,1.1274
3755.00,1.1272
3754.00,1.1270
3753.00,1.1268
3752.00,1.1268
3751.00,1.1266
3750.00,1.1264
3749.00,1.1263
3748.00,1.1262
3747.00,1.1261
3746.00,1.1260
3745.00,1.1259
3744.00,1.1261
3743.00,1.1264
3742.00,1.1264
3741.00,1.1262
3740.00,1.1261
3739.00,1.1262
3738.00,1.1262
3737.00,1.1262
3736.00,1.1263
3735.00,1.1264
3734.00,1.1263
3733.00,1.1261
3732.00,1.1260
3731.00,1.1260
3730.00,1.1261
3729.00,1.1262
3728.00,1.1262
3727.00,1.1263
3726.00,1.1264
3725.00,1.1265
3724.00,1.1265
3723.00,1.1264
3722.00,1.1264
3721.00,1.1264
3720.00,1.1264
3719.00,1.1264
3718.00,1.1263
3717.00,1.1263
3716.00,1.1263
3715.00,1.1263
3714.00,1.1262
3713.00,1.1262
3712.00,1.1262
3711.00,1.1263
3710.00,1.1265
3709.00,1.1268
3708.00,1.1270
3707.00,1.1272
3706.00,1.1273
3705.00,1.1273
3704.00,1.1273
3703.00,1.1272
3702.00,1.1271
3701.00,1.1272
3700.00,1.1272
3699.00,1.1273
3698.00,1.1273
3697.00,1.1273
3696.00,1.1274
3695.00,1.1276
3694.00,1.1277
3693.00,1.1277
3692.00,1.1277
3691.00,1.1276
3690.00,1.1276
3689.00,1.1275
3688.00,1.1275
3687.00,1.1278
3686.00,1.1280
3685.00,1.1283
3684.00,1.1285
3683.00,1.1288
3682.00,1.1290
3681.00,1.1292
3680.00,1.1293
3679.00,1.1295
3678.00,1.1297
3677.00,1.1297
3676.00,1.1297
3675.00,1.1299
3674.00,1.1302
3673.00,1.1305
3672.00,1.1307
3671.00,1.1309
3670.00,1.1312
3669.00,1.1317
3668.00,1.1320
3667.00,1.1324
3666.00,1.1327
3665.00,1.1330
3664.00,1.1334
3663.00,1.1337
3662.00,1.1340
3661.00,1.1342
3660.00,1.1345
3659.00,1.1347
3658.00,1.1348
3657.00,1.1351
3656.00,1.1354
3655.00,1.1358
3654.00,1.1361
3653.00,1.1362
3652.00,1.1362
3651.00,1.1364
3650.00,1.1367
3649.00,1.1370
3648.00,1.1373
3647.00,1.1375
3646.00,1.1379
3645.00,1.1383
3644.00,1.1387
3643.00,1.1390
3642.00,1.1393
3641.00,1.1397
3640.00,1.1399
3639.00,1.1401
3638.00,1.1403
3637.00,1.1405
3636.00,1.1407
3635.00,1.1408
3634.00,1.1409
3633.00,1.1410
3632.00,1.1411
3631.00,1.1410
3630.00,1.1410
3629.00,1.1410
3628.00,1.1413
3627.00,1.1416
3626.00,1.1419
3625.00,1.1421
3624.00,1.1424
3623.00,1.1428
3622.00,1.1431
3621.00,1.1433
3620.00,1.1435
3619.00,1.1437
3618.00,1.1439
3617.00,1.1440
3616.00,1.1440
3615.00,1.1440
3614.00,1.1440
3613.00,1.1441
3612.00,1.1441
3611.00,1.1441
3610.00,1.1441
3609.00,1.1442
3608.00,1.1443
3607.00,1.1445
3606.00,1.1447
3605.00,1.1449
3604.00,1.1451
3603.00,1.1453
3602.00,1.1454
3601.00,1.1456
3600.00,1.1458
3599.00,1.1459
3598.00,1.1460
3597.00,1.1461
3596.00,1.1461
3595.00,1.1460
3594.00,1.1460
3593.00,1.1459
3592.00,1.1459
3591.00,1.1459
3590.00,1.1459
3589.00,1.1459
3588.00,1.1459
3587.00,1.1459
3586.00,1.1459
3585.00,1.1460
3584.00,1.1460
3583.00,1.1461
3582.00,1.1463
3581.00,1.1464
3580.00,1.1466
3579.00,1.1467
3578.00,1.1468
3577.00,1.1468
3576.00,1.1468
3575.00,1.1468
3574.00,1.1468
3573.00,1.1468
3572.00,1.1467
3571.00,1.1467
3570.00,1.1467
3569.00,1.1467
3568.00,1.1467
3567.00,1.1468
3566.00,1.1469
3565.00,1.1470
3564.00,1.1470
3563.00,1.1470
3562.00,1.1470
3561.00,1.1471
3560.00,1.1471
3559.00,1.1471
3558.00,1.1472
3557.00,1.1472
3556.00,1.1473
3555.00,1.1474
3554.00,1.1474
3553.00,1.1474
3552.00,1.1475
3551.00,1.1475
3550.00,1.1475
3549.00,1.1475
3548.00,1.1475
3547.00,1.1475
3546.00,1.1474
3545.00,1.1475
3544.00,1.1475
3543.00,1.1476
3542.00,1.1477
3541.00,1.1478
3540.00,1.1480
3539.00,1.1481
3538.00,1.1482
3537.00,1.1482
3536.00,1.1483
3535.00,1.1484
3534.00,1.1485
3533.00,1.1486
3532.00,1.1486
3531.00,1.1488
3530.00,1.1489
3529.00,1.1490
3528.00,1.1490
3527.00,1.1490
3526.00,1.1490
3525.00,1.1490
3524.00,1.1490
3523.00,1.1491
3522.00,1.1493
3521.00,1.1494
3520.00,1.1496
3519.00,1.1497
3518.00,1.1498
3517.00,1.1499
3516.00,1.1500
3515.00,1.1501
3514.00,1.1502
3513.00,1.1504
3512.00,1.1506
3511.00,1.1508
3510.00,1.1509
3509.00,1.1511
3508.00,1.1512
3507.00,1.1513
3506.00,1.1514
3505.00,1.1515
3504.00,1.1516
3503.00,1.1517
3502.00,1.1518
3501.00,1.1520
3500.00,1.1521
3499.00,1.1523
3498.00,1.1525
3497.00,1.1527
3496.00,1.1528
3495.00,1.1530
3494.00,1.1532
3493.00,1.1534
3492.00,1.1536
3491.00,1.1537
3490.00,1.1539
3489.00,1.1541
3488.00,1.1543
3487.00,1.1545
3486.00,1.1547
3485.00,1.1549
3484.00,1.1551
3483.00,1.1553
3482.00,1.1555
3481.00,1.1556
3480.00,1.1558
3479.00,1.1560
3478.00,1.1562
3477.00,1.1565
3476.00,1.1568
3475.00,1.1571
3474.00,1.1573
3473.00,1.1575
3472.00,1.1577
3471.00,1.1578
3470.00,1.1580
3469.00,1.1581
3468.00,1.1583
3467.00,1.1586
3466.00,1.1589
3465.00,1.1593
3464.00,1.1597
3463.00,1.1600
3462.00,1.1603
3461.00,1.1606
3460.00,1.1608
3459.00,1.1611
3458.00,1.1614
3457.00,1.1618
3456.00,1.1620
3455.00,1.1623
3454.00,1.1626
3453.00,1.1629
3452.00,1.1633
3451.00,1.1636
3450.00,1.1640
3449.00,1.1643
3448.00,1.1647
3447.00,1.1650
3446.00,1.1654
3445.00,1.1657
3444.00,1.1661
3443.00,1.1665
3442.00,1.1668
3441.00,1.1672
3440.00,1.1675
3439.00,1.1678
3438.00,1.1681
3437.00,1.1684
3436.00,1.1687
3435.00,1.1691
3434.00,1.1695
3433.00,1.1699
3432.00,1.1703
3431.00,1.1707
3430.00,1.1711
3429.00,1.1715
3428.00,1.1719
3427.00,1.1723
3426.00,1.1727
3425.00,1.1731
3424.00,1.1734
3423.00,1.1737
3422.00,1.1740
3421.00,1.1744
3420.00,1.1747
3419.00,1.1750
3418.00,1.1753
3417.00,1.1756
3416.00,1.1758
3415.00,1.1761
3414.00,1.1763
3413.00,1.1766
3412.00,1.1768
3411.00,1.1771
3410.00,1.1773
3409.00,1.1775
3408.00,1.1778
3407.00,1.1780
3406.00,1.1782
3405.00,1.1784
3404.00,1.1786
3403.00,1.1787
3402.00,1.1788
3401.00,1.1790
3400.00,1.1792
3399.00,1.1795
3398.00,1.1798
3397.00,1.1801
3396.00,1.1803
3395.00,1.1805
3394.00,1.1805
3393.00,1.1806
3392.00,1.1807
3391.00,1.1808
3390.00,1.1811
3389.00,1.1813
3388.00,1.1816
3387.00,1.1818
3386.00,1.1820
3385.00,1.1822
3384.00,1.1823
3383.00,1.1824
3382.00,1.1826
3381.00,1.1827
3380.00,1.1828
3379.00,1.1830
3378.00,1.1831
3377.00,1.1832
3376.00,1.1833
3375.00,1.1834
3374.00,1.1835
3373.00,1.1836
3372.00,1.1836
3371.00,1.1836
3370.00,1.1836
3369.00,1.1836
3368.00,1.1837
3367.00,1.1839
3366.00,1.1841
3365.00,1.1843
3364.00,1.1845
3363.00,1.1846
3362.00,1.1847
3361.00,1.1847
3360.00,1.1848
3359.00,1.1849
3358.00,1.1849
3357.00,1.1850
3356.00,1.1851
3355.00,1.1851
3354.00,1.1852
3353.00,1.1852
3352.00,1.1852
3351.00,1.1852
3350.00,1.1852
3349.00,1.1853
3348.00,1.1854
3347.00,1.1856
3346.00,1.1856
3345.00,1.1857
3344.00,1.1857
3343.00,1.1856
3342.00,1.1856
3341.00,1.1856
3340.00,1.1857
3339.00,1.1857
3338.00,1.1858
3337.00,1.1859
3336.00,1.1860
3335.00,1.1861
3334.00,1.1862
3333.00,1.1862
3332.00,1.1862
3331.00,1.1862
3330.00,1.1863
3329.00,1.1864
3328.00,1.1864
3327.00,1.1864
3326.00,1.1864
3325.00,1.1864
3324.00,1.1865
3323.00,1.1866
3322.00,1.1867
3321.00,1.1868
3320.00,1.1870
3319.00,1.1871
3318.00,1.1872
3317.00,1.1873
3316.00,1.1874
3315.00,1.1874
3314.00,1.1875
3313.00,1.1876
3312.00,1.1876
3311.00,1.1876
3310.00,1.1876
3309.00,1.1876
3308.00,1.1875
3307.00,1.1874
3306.00,1.1875
3305.00,1.1876
3304.00,1.1878
3303.00,1.1881
3302.00,1.1884
3301.00,1.1886
3300.00,1.1887
3299.00,1.1887
3298.00,1.1888
3297.00,1.1888
3296.00,1.1888
3295.00,1.1889
3294.00,1.1889
3293.00,1.1890
3292.00,1.1891
3291.00,1.1892
3290.00,1.1894
3289.00,1.1896
3288.00,1.1898
3287.00,1.1899
3286.00,1.1900
3285.00,1.1901
3284.00,1.1902
3283.00,1.1903
3282.00,1.1904
3281.00,1.1904
3280.00,1.1905
3279.00,1.1906
3278.00,1.1907
3277.00,1.1908
3276.00,1.1909
3275.00,1.1910
3274.00,1.1910
3273.00,1.1910
3272.00,1.1911
3271.00,1.1911
3270.00,1.1913
3269.00,1.1915
3268.00,1.1917
3267.00,1.1918
3266.00,1.1920
3265.00,1.1921
3264.00,1.1923
3263.00,1.1924
3262.00,1.1925
3261.00,1.1926
3260.00,1.1927
3259.00,1.1928
3258.00,1.1929
3257.00,1.1930
3256.00,1.1931
3255.00,1.1933
3254.00,1.1934
3253.00,1.1936
3252.00,1.1937
3251.00,1.1938
3250.00,1.1940
3249.00,1.1941
3248.00,1.1942
3247.00,1.1943
3246.00,1.1945
3245.00,1.1946
3244.00,1.1948
3243.00,1.1950
3242.00,1.1952
3241.00,1.1953
3240.00,1.1954
3239.00,1.1955
3238.00,1.1956
3237.00,1.1957
3236.00,1.1958
3235.00,1.1959
3234.00,1.1960
3233.00,1.1961
3232.00,1.1963
3231.00,1.1965
3230.00,1.1967
3229.00,1.1969
3228.00,1.1971
3227.00,1.1972
3226.00,1.1973
3225.00,1.1973
3224.00,1.1974
3223.00,1.1974
3222.00,1.1975
3221.00,1.1976
3220.00,1.1976
3219.00,1.1977
3218.00,1.1978
3217.00,1.1978
3216.00,1.1979
3215.00,1.1979
3214.00,1.1978
3213.00,1.1978
3212.00,1.1979
3211.00,1.1979
3210.00,1.1979
3209.00,1.1979
3208.00,1.1979
3207.00,1.1979
3206.00,1.1979
3205.00,1.1979
3204.00,1.1978
3203.00,1.1978
3202.00,1.1978
3201.00,1.1978
3200.00,1.1977
3199.00,1.1977
3198.00,1.1977
3197.00,1.1977
3196.00,1.1977
3195.00,1.1976
3194.00,1.1976
3193.00,1.1976
3192.00,1.1976
3191.00,1.1975
3190.00,1.1975
3189.00,1.1974
3188.00,1.1975
3187.00,1.1975
3186.00,1.1975
3185.00,1.1975
3184.00,1.1975
3183.00,1.1975
3182.00,1.1975
3181.00,1.1975
3180.00,1.1975
3179.00,1.1974
3178.00,1.1974
3177.00,1.1974
3176.00,1.1974
3175.00,1.1974
3174.00,1.1974
3173.00,1.1975
3172.00,1.1975
3171.00,1.1974
3170.00,1.1974
3169.00,1.1974
3168.00,1.1974
3167.00,1.1974
3166.00,1.1975
3165.00,1.1975
3164.00,1.1975
3163.00,1.1974
3162.00,1.1974
3161.00,1.1975
3160.00,1.1975
3159.00,1.1975
3158.00,1.1975
3157.00,1.1975
3156.00,1.1975
3155.00,1.1975
3154.00,1.1975
3153.00,1.1974
3152.00,1.1975
3151.00,1.1975
3150.00,1.1977
3149.00,1.1978
3148.00,1.1979
3147.00,1.1980
3146.00,1.1980
3145.00,1.1981
3144.00,1.1981
3143.00,1.1981
3142.00,1.1980
3141.00,1.1980
3140.00,1.1980
3139.00,1.1981
3138.00,1.1982
3137.00,1.1983
3136.00,1.1984
3135.00,1.1985
3134.00,1.1985
3133.00,1.1986
3132.00,1.1986
3131.00,1.1986
3130.00,1.1987
3129.00,1.1987
3128.00,1.1988
3127.00,1.1989
3126.00,1.1989
3125.00,1.1990
3124.00,1.1989
3123.00,1.1989
3122.00,1.1988
3121.00,1.1988
3120.00,1.1988
3119.00,1.1987
3118.00,1.1987
3117.00,1.1988
3116.00,1.1988
3115.00,1.1989
3114.00,1.1990
3113.00,1.1991
3112.00,1.1992
3111.00,1.1992
3110.00,1.1992
3109.00,1.1992
3108.00,1.1992
3107.00,1.1993
3106.00,1.1993
3105.00,1.1993
3104.00,1.1993
3103.00,1.1993
3102.00,1.1993
3101.00,1.1992
3100.00,1.1992
3099.00,1.1992
3098.00,1.1991
3097.00,1.1991
3096.00,1.1991
3095.00,1.1991
3094.00,1.1990
3093.00,1.1990
3092.00,1.1989
3091.00,1.1988
3090.00,1.1988
3089.00,1.1987
3088.00,1.1986
3087.00,1.1985
3086.00,1.1984
3085.00,1.1983
3084.00,1.1982
3083.00,1.1980
3082.00,1.1979
3081.00,1.1978
3080.00,1.1977
3079.00,1.1976
3078.00,1.1976
3077.00,1.1976
3076.00,1.1976
3075.00,1.1976
3074.00,1.1975
3073.00,1.1975
3072.00,1.1973
3071.00,1.1972
3070.00,1.1971
3069.00,1.1970
3068.00,1.1968
3067.00,1.1967
3066.00,1.1967
3065.00,1.1967
3064.00,1.1966
3063.00,1.1966
3062.00,1.1965
3061.00,1.1965
3060.00,1.1964
3059.00,1.1963
3058.00,1.1961
3057.00,1.1960
3056.00,1.1960
3055.00,1.1959
3054.00,1.1958
3053.00,1.1957
3052.00,1.1956
3051.00,1.1954
3050.00,1.1954
3049.00,1.1953
3048.00,1.1952
3047.00,1.1952
3046.00,1.1951
3045.00,1.1950
3044.00,1.1948
3043.00,1.1947
3042.00,1.1946
3041.00,1.1946
3040.00,1.1946
3039.00,1.1945
3038.00,1.1945
3037.00,1.1944
3036.00,1.1943
3035.00,1.1942
3034.00,1.1941
3033.00,1.1940
3032.00,1.1939
3031.00,1.1939
3030.00,1.1938
3029.00,1.1937
3028.00,1.1936
3027.00,1.1935
3026.00,1.1934
3025.00,1.1933
3024.00,1.1932
3023.00,1.1932
3022.00,1.1931
3021.00,1.1930
3020.00,1.1929
3019.00,1.1928
3018.00,1.1928
3017.00,1.1927
3016.00,1.1927
3015.00,1.1927
3014.00,1.1926
3013.00,1.1925
3012.00,1.1925
3011.00,1.1924
3010.00,1.1924
3009.00,1.1924
3008.00,1.1923
3007.00,1.1923
3006.00,1.1922
3005.00,1.1920
3004.00,1.1919
3003.00,1.1918
3002.00,1.1917
3001.00,1.1916
3000.00,1.1915
2999.00,1.1913
2998.00,1.1912
2997.00,1.1911
2996.00,1.1910
2995.00,1.1910
2994.00,1.1909
2993.00,1.1907
2992.00,1.1906
2991.00,1.1905
2990.00,1.1905
2989.00,1.1904
2988.00,1.1903
2987.00,1.1902
2986.00,1.1902
2985.00,1.1901
2984.00,1.1900
2983.00,1.1899
2982.00,1.1898
2981.00,1.1897
2980.00,1.1896
2979.00,1.1895
2978.00,1.1894
2977.00,1.1893
2976.00,1.1892
2975.00,1.1891
2974.00,1.1889
2973.00,1.1888
2972.00,1.1887
2971.00,1.1887
2970.00,1.1886
2969.00,1.1885
2968.00,1.1884
2967.00,1.1883
2966.00,1.1883
2965.00,1.1883
2964.00,1.1883
2963.00,1.1882
2962.00,1.1882
2961.00,1.1882
2960.00,1.1881
2959.00,1.1880
2958.00,1.1880
2957.00,1.1879
2956.00,1.1878
2955.00,1.1877
2954.00,1.1876
2953.00,1.1875
2952.00,1.1873
2951.00,1.1872
2950.00,1.1870
2949.00,1.1869
2948.00,1.1867
2947.00,1.1865
2946.00,1.1863
2945.00,1.1861
2944.00,1.1860
2943.00,1.1859
2942.00,1.1857
2941.00,1.1856
2940.00,1.1855
2939.00,1.1854
2938.00,1.1854
2937.00,1.1853
2936.00,1.1853
2935.00,1.1853
2934.00,1.1852
2933.00,1.1851
2932.00,1.1851
2931.00,1.1850
2930.00,1.1849
2929.00,1.1848
2928.00,1.1849
2927.00,1.1849
2926.00,1.1850
2925.00,1.1851
2924.00,1.1853
2923.00,1.1854
2922.00,1.1856
2921.00,1.1857
2920.00,1.1857
2919.00,1.1857
2918.00,1.1857
2917.00,1.1856
2916.00,1.1854
2915.00,1.1853
2914.00,1.1851
2913.00,1.1849
2912.00,1.1847
2911.00,1.1846
2910.00,1.1844
2909.00,1.1842
2908.00,1.1841
2907.00,1.1839
2906.00,1.1838
2905.00,1.1837
2904.00,1.1836
2903.00,1.1835
2902.00,1.1834
2901.00,1.1833
2900.00,1.1832
2899.00,1.1831
2898.00,1.1830
2897.00,1.1829
2896.00,1.1828
2895.00,1.1827
2894.00,1.1826
2893.00,1.1825
2892.00,1.1825
2891.00,1.1824
2890.00,1.1823
2889.00,1.1822
2888.00,1.1821
2887.00,1.1820
2886.00,1.1819
2885.00,1.1818
2884.00,1.1817
2883.00,1.1816
2882.00,1.1815
2881.00,1.1814
2880.00,1.1813
2879.00,1.1812
2878.00,1.1810
2877.00,1.1809
2876.00,1.1807
2875.00,1.1805
2874.00,1.1804
2873.00,1.1802
2872.00,1.1801
2871.00,1.1800
2870.00,1.1799
2869.00,1.1798
2868.00,1.1796
2867.00,1.1794
2866.00,1.1793
2865.00,1.1793
2864.00,1.1793
2863.00,1.1794
2862.00,1.1795
2861.00,1.1796
2860.00,1.1797
2859.00,1.1798
2858.00,1.1799
2857.00,1.1799
2856.00,1.1799
2855.00,1.1799
2854.00,1.1798
2853.00,1.1798
2852.00,1.1798
2851.00,1.1798
2850.00,1.1799
2849.00,1.1799
2848.00,1.1799
2847.00,1.1798
2846.00,1.1797
2845.00,1.1796
2844.00,1.1795
2843.00,1.1793
2842.00,1.1792
2841.00,1.1791
2840.00,1.1790
2839.00,1.1788
2838.00,1.1787
2837.00,1.1786
2836.00,1.1786
2835.00,1.1785
2834.00,1.1785
2833.00,1.1784
2832.00,1.1784
2831.00,1.1783
2830.00,1.1783
2829.00,1.1782
2828.00,1.1782
2827.00,1.1781
2826.00,1.1780
2825.00,1.1780
2824.00,1.1779
2823.00,1.1779
2822.00,1.1778
2821.00,1.1778
2820.00,1.1777
2819.00,1.1776
2818.00,1.1776
2817.00,1.1775
2816.00,1.1775
2815.00,1.1774
2814.00,1.1773
2813.00,1.1772
2812.00,1.1772
2811.00,1.1771
2810.00,1.1771
2809.00,1.1770
2808.00,1.1770
2807.00,1.1770
2806.00,1.1770
2805.00,1.1769
2804.00,1.1769
2803.00,1.1768
2802.00,1.1768
2801.00,1.1767
2800.00,1.1766
2799.00,1.1766
2798.00,1.1765
2797.00,1.1765
2796.00,1.1764
2795.00,1.1764
2794.00,1.1763
2793.00,1.1763
2792.00,1.1763
2791.00,1.1763
2790.00,1.1762
2789.00,1.1762
2788.00,1.1762
2787.00,1.1762
2786.00,1.1761
2785.00,1.1761
2784.00,1.1761
2783.00,1.1760
2782.00,1.1760
2781.00,1.1760
2780.00,1.1760
2779.00,1.1759
2778.00,1.1759
2777.00,1.1758
2776.00,1.1758
2775.00,1.1758
2774.00,1.1757
2773.00,1.1757
2772.00,1.1757
2771.00,1.1756
2770.00,1.1756
2769.00,1.1756
2768.00,1.1755
2767.00,1.1755
2766.00,1.1755
2765.00,1.1755
2764.00,1.1755
2763.00,1.1754
2762.00,1.1754
2761.00,1.1754
2760.00,1.1753
2759.00,1.1753
2758.00,1.1753
2757.00,1.1752
2756.00,1.1752
2755.00,1.1752
2754.00,1.1751
2753.00,1.1751
2752.00,1.1751
2751.00,1.1751
2750.00,1.1751
2749.00,1.1751
2748.00,1.1750
2747.00,1.1750
2746.00,1.1750
2745.00,1.1749
2744.00,1.1749
2743.00,1.1749
2742.00,1.1749
2741.00,1.1749
2740.00,1.1749
2739.00,1.1748
2738.00,1.1748
2737.00,1.1748
2736.00,1.1748
2735.00,1.1748
2734.00,1.1748
2733.00,1.1748
2732.00,1.1747
2731.00,1.1747
2730.00,1.1746
2729.00,1.1746
2728.00,1.1746
2727.00,1.1746
2726.00,1.1745
2725.00,1.1745
2724.00,1.1745
2723.00,1.1745
2722.00,1.1745
2721.00,1.1745
2720.00,1.1745
2719.00,1.1744
2718.00,1.1744
2717.00,1.1744
2716.00,1.1743
2715.00,1.1743
2714.00,1.1743
2713.00,1.1743
2712.00,1.1743
2711.00,1.1743
2710.00,1.1742
2709.00,1.1742
2708.00,1.1742
2707.00,1.1742
2706.00,1.1742
2705.00,1.1742
2704.00,1.1742
2703.00,1.1742
2702.00,1.1742
2701.00,1.1742
2700.00,1.1742
2699.00,1.1742
2698.00,1.1742
2697.00,1.1742
2696.00,1.1742
2695.00,1.1742
2694.00,1.1742
2693.00,1.1741
2692.00,1.1741
2691.00,1.1741
2690.00,1.1741
2689.00,1.1741
2688.00,1.1741
2687.00,1.1741
2686.00,1.1741
2685.00,1.1741
2684.00,1.1741
2683.00,1.1741
2682.00,1.1741
2681.00,1.1741
2680.00,1.1741
2679.00,1.1741
2678.00,1.1741
2677.00,1.1741
2676.00,1.1741
2675.00,1.1741
2674.00,1.1740
2673.00,1.1740
2672.00,1.1741
2671.00,1.1741
2670.00,1.1741
2669.00,1.1741
2668.00,1.1740
2667.00,1.1740
2666.00,1.1740
2665.00,1.1740
2664.00,1.1740
2663.00,1.1741
2662.00,1.1741
2661.00,1.1741
2660.00,1.1742
2659.00,1.1742
2658.00,1.1742
2657.00,1.1741
2656.00,1.1742
2655.00,1.1742
2654.00,1.1742
2653.00,1.1742
2652.00,1.1742
2651.00,1.1742
2650.00,1.1742
2649.00,1.1742
2648.00,1.1742
2647.00,1.1743
2646.00,1.1743
2645.00,1.1743
2644.00,1.1744
2643.00,1.1744
2642.00,1.1744
2641.00,1.1744
2640.00,1.1744
2639.00,1.1744
2638.00,1.1744
2637.00,1.1744
2636.00,1.1744
2635.00,1.1744
2634.00,1.1744
2633.00,1.1745
2632.00,1.1745
2631.00,1.1745
2630.00,1.1745
2629.00,1.1745
2628.00,1.1745
2627.00,1.1745
2626.00,1.1745
2625.00,1.1745
2624.00,1.1746
2623.00,1.1746
2622.00,1.1746
2621.00,1.1746
2620.00,1.1746
2619.00,1.1746
2618.00,1.1746
2617.00,1.1746
2616.00,1.1746
2615.00,1.1746
2614.00,1.1746
2613.00,1.1747
2612.00,1.1747
2611.00,1.1747
2610.00,1.1747
2609.00,1.1748
2608.00,1.1748
2607.00,1.1748
2606.00,1.1749
2605.00,1.1749
2604.00,1.1749
2603.00,1.1749
2602.00,1.1749
2601.00,1.1749
2600.00,1.1749
2599.00,1.1749
2598.00,1.1749
2597.00,1.1750
2596.00,1.1750
2595.00,1.1750
2594.00,1.1750
2593.00,1.1750
2592.00,1.1750
2591.00,1.1751
2590.00,1.1751
2589.00,1.1751
2588.00,1.1752
2587.00,1.1752
2586.00,1.1752
2585.00,1.1753
2584.00,1.1753
2583.00,1.1753
2582.00,1.1753
2581.00,1.1753
2580.00,1.1753
2579.00,1.1754
2578.00,1.1754
2577.00,1.1754
2576.00,1.1755
2575.00,1.1755
2574.00,1.1755
2573.00,1.1755
2572.00,1.1756
2571.00,1.1756
2570.00,1.1756
2569.00,1.1756
2568.00,1.1756
2567.00,1.1756
2566.00,1.1756
2565.00,1.1757
2564.00,1.1757
2563.00,1.1758
2562.00,1.1758
2561.00,1.1758
2560.00,1.1759
2559.00,1.1759
2558.00,1.1760
2557.00,1.1760
2556.00,1.1761
2555.00,1.1761
2554.00,1.1761
2553.00,1.1761
2552.00,1.1762
2551.00,1.1762
2550.00,1.1762
2549.00,1.1762
2548.00,1.1763
2547.00,1.1763
2546.00,1.1763
2545.00,1.1764
2544.00,1.1764
2543.00,1.1764
2542.00,1.1765
2541.00,1.1765
2540.00,1.1765
2539.00,1.1766
2538.00,1.1766
2537.00,1.1767
2536.00,1.1767
2535.00,1.1767
2534.00,1.1767
2533.00,1.1768
2532.00,1.1768
2531.00,1.1768
2530.00,1.1768
2529.00,1.1769
2528.00,1.1769
2527.00,1.1769
2526.00,1.1770
2525.00,1.1770
2524.00,1.1771
2523.00,1.1772
2522.00,1.1772
2521.00,1.1773
2520.00,1.1773
2519.00,1.1774
2518.00,1.1774
2517.00,1.1775
2516.00,1.1775
2515.00,1.1775
2514.00,1.1775
2513.00,1.1775
2512.00,1.1776
2511.00,1.1776
2510.00,1.1777
2509.00,1.1777
2508.00,1.1777
2507.00,1.1778
2506.00,1.1778
2505.00,1.1778
2504.00,1.1779
2503.00,1.1779
2502.00,1.1779
2501.00,1.1779
2500.00,1.1779
2499.00,1.1780
2498.00,1.1780
2497.00,1.1781
2496.00,1.1781
2495.00,1.1781
2494.00,1.1782
2493.00,1.1782
2492.00,1.1782
2491.00,1.1783
2490.00,1.1783
2489.00,1.1783
2488.00,1.1783
2487.00,1.1783
2486.00,1.1783
2485.00,1.1784
2484.00,1.1784
2483.00,1.1785
2482.00,1.1785
2481.00,1.1785
2480.00,1.1785
2479.00,1.1785
2478.00,1.1785
2477.00,1.1785
2476.00,1.1786
2475.00,1.1786
2474.00,1.1786
2473.00,1.1786
2472.00,1.1786
2471.00,1.1787
2470.00,1.1787
2469.00,1.1787
2468.00,1.1787
2467.00,1.1787
2466.00,1.1787
2465.00,1.1787
2464.00,1.1787
2463.00,1.1787
2462.00,1.1788
2461.00,1.1788
2460.00,1.1788
2459.00,1.1788
2458.00,1.1788
2457.00,1.1788
2456.00,1.1788
2455.00,1.1788
2454.00,1.1788
2453.00,1.1788
2452.00,1.1787
2451.00,1.1787
2450.00,1.1787
2449.00,1.1787
2448.00,1.1787
2447.00,1.1787
2446.00,1.1786
2445.00,1.1786
2444.00,1.1786
2443.00,1.1785
2442.00,1.1785
2441.00,1.1785
2440.00,1.1785
2439.00,1.1785
2438.00,1.1784
2437.00,1.1784
2436.00,1.1784
2435.00,1.1784
2434.00,1.1783
2433.00,1.1783
2432.00,1.1783
2431.00,1.1782
2430.00,1.1782
2429.00,1.1782
2428.00,1.1782
2427.00,1.1781
2426.00,1.1781
2425.00,1.1781
2424.00,1.1781
2423.00,1.1781
2422.00,1.1780
2421.00,1.1780
2420.00,1.1780
2419.00,1.1779
2418.00,1.1779
2417.00,1.1779
2416.00,1.1779
2415.00,1.1779
2414.00,1.1778
2413.00,1.1777
2412.00,1.1777
2411.00,1.1777
2410.00,1.1776
2409.00,1.1776
2408.00,1.1776
2407.00,1.1776
2406.00,1.1775
2405.00,1.1774
2404.00,1.1774
2403.00,1.1774
2402.00,1.1773
2401.00,1.1773
2400.00,1.1773
2399.00,1.1772
2398.00,1.1772
2397.00,1.1771
2396.00,1.1771
2395.00,1.1770
2394.00,1.1770
2393.00,1.1770
2392.00,1.1769
2391.00,1.1769
2390.00,1.1768
2389.00,1.1768
2388.00,1.1767
2387.00,1.1767
2386.00,1.1767
2385.00,1.1768
2384.00,1.1769
2383.00,1.1770
2382.00,1.1772
2381.00,1.1775
2380.00,1.1779
2379.00,1.1784
2378.00,1.1787
2377.00,1.1791
2376.00,1.1793
2375.00,1.1794
2374.00,1.1794
2373.00,1.1794
2372.00,1.1794
2371.00,1.1793
2370.00,1.1793
2369.00,1.1793
2368.00,1.1793
2367.00,1.1794
2366.00,1.1795
2365.00,1.1796
2364.00,1.1797
2363.00,1.1798
2362.00,1.1799
2361.00,1.1800
2360.00,1.1801
2359.00,1.1802
2358.00,1.1802
2357.00,1.1803
2356.00,1.1804
2355.00,1.1805
2354.00,1.1807
2353.00,1.1810
2352.00,1.1813
2351.00,1.1816
2350.00,1.1816
2349.00,1.1814
2348.00,1.1810
2347.00,1.1806
2346.00,1.1804
2345.00,1.1805
2344.00,1.1808
2343.00,1.1811
2342.00,1.1815
2341.00,1.1818
2340.00,1.1820
2339.00,1.1820
2338.00,1.1819
2337.00,1.1818
2336.00,1.1817
2335.00,1.1816
2334.00,1.1815
2333.00,1.1815
2332.00,1.1814
2331.00,1.1814
2330.00,1.1813
2329.00,1.1813
2328.00,1.1813
2327.00,1.1813
2326.00,1.1813
2325.00,1.1813
2324.00,1.1814
2323.00,1.1814
2322.00,1.1814
2321.00,1.1814
2320.00,1.1814
2319.00,1.1814
2318.00,1.1813
2317.00,1.1814
2316.00,1.1814
2315.00,1.1814
2314.00,1.1814
2313.00,1.1814
2312.00,1.1815
2311.00,1.1814
2310.00,1.1814
2309.00,1.1814
2308.00,1.1813
2307.00,1.1813
2306.00,1.1812
2305.00,1.1812
2304.00,1.1812
2303.00,1.1811
2302.00,1.1810
2301.00,1.1810
2300.00,1.1809
2299.00,1.1809
2298.00,1.1808
2297.00,1.1808
2296.00,1.1808
2295.00,1.1807
2294.00,1.1807
2293.00,1.1807
2292.00,1.1807
2291.00,1.1807
2290.00,1.1806
2289.00,1.1806
2288.00,1.1805
2287.00,1.1806
2286.00,1.1806
2285.00,1.1807
2284.00,1.1808
2283.00,1.1809
2282.00,1.1810
2281.00,1.1810
2280.00,1.1810
2279.00,1.1810
2278.00,1.1810
2277.00,1.1809
2276.00,1.1809
2275.00,1.1809
2274.00,1.1808
2273.00,1.1809
2272.00,1.1809
2271.00,1.1809
2270.00,1.1810
2269.00,1.1810
2268.00,1.1810
2267.00,1.1810
2266.00,1.1810
2265.00,1.1811
2264.00,1.1811
2263.00,1.1811
2262.00,1.1811
2261.00,1.1812
2260.00,1.1812
2259.00,1.1812
2258.00,1.1812
2257.00,1.1812
2256.00,1.1812
2255.00,1.1812
2254.00,1.1812
2253.00,1.1812
2252.00,1.1812
2251.00,1.1811
2250.00,1.1811
2249.00,1.1812
2248.00,1.1812
2247.00,1.1812
2246.00,1.1812
2245.00,1.1812
2244.00,1.1813
2243.00,1.1812
2242.00,1.1812
2241.00,1.1812
2240.00,1.1812
2239.00,1.1812
2238.00,1.1812
2237.00,1.1812
2236.00,1.1813
2235.00,1.1812
2234.00,1.1812
2233.00,1.1813
2232.00,1.1813
2231.00,1.1813
2230.00,1.1813
2229.00,1.1813
2228.00,1.1813
2227.00,1.1813
2226.00,1.1813
2225.00,1.1813
2224.00,1.1813
2223.00,1.1813
2222.00,1.1813
2221.00,1.1813
2220.00,1.1813
2219.00,1.1812
2218.00,1.1812
2217.00,1.1812
2216.00,1.1812
2215.00,1.1812
2214.00,1.1812
2213.00,1.1813
2212.00,1.1813
2211.00,1.1812
2210.00,1.1812
2209.00,1.1812
2208.00,1.1813
2207.00,1.1812
2206.00,1.1812
2205.00,1.1812
2204.00,1.1812
2203.00,1.1812
2202.00,1.1811
2201.00,1.1811
2200.00,1.1811
2199.00,1.1811
2198.00,1.1811
2197.00,1.1811
2196.00,1.1811
2195.00,1.1811
2194.00,1.1810
2193.00,1.1810
2192.00,1.1810
2191.00,1.1809
2190.00,1.1809
2189.00,1.1810
2188.00,1.1810
2187.00,1.1810
2186.00,1.1810
2185.00,1.1810
2184.00,1.1809
2183.00,1.1808
2182.00,1.1807
2181.00,1.1807
2180.00,1.1808
2179.00,1.1808
2178.00,1.1807
2177.00,1.1807
2176.00,1.1807
2175.00,1.1806
2174.00,1.1806
2173.00,1.1805
2172.00,1.1805
2171.00,1.1805
2170.00,1.1805
2169.00,1.1805
2168.00,1.1805
2167.00,1.1805
2166.00,1.1804
2165.00,1.1803
2164.00,1.1803
2163.00,1.1802
2162.00,1.1802
2161.00,1.1802
2160.00,1.1801
2159.00,1.1801
2158.00,1.1800
2157.00,1.1800
2156.00,1.1800
2155.00,1.1800
2154.00,1.1799
2153.00,1.1799
2152.00,1.1798
2151.00,1.1798
2150.00,1.1797
2149.00,1.1797
2148.00,1.1797
2147.00,1.1796
2146.00,1.1795
2145.00,1.1795
2144.00,1.1795
2143.00,1.1794
2142.00,1.1794
2141.00,1.1793
2140.00,1.1793
2139.00,1.1792
2138.00,1.1791
2137.00,1.1791
2136.00,1.1791
2135.00,1.1790
2134.00,1.1790
2133.00,1.1789
2132.00,1.1789
2131.00,1.1788
2130.00,1.1788
2129.00,1.1787
2128.00,1.1786
2127.00,1.1786
2126.00,1.1785
2125.00,1.1785
2124.00,1.1785
2123.00,1.1784
2122.00,1.1784
2121.00,1.1783
2120.00,1.1783
2119.00,1.1782
2118.00,1.1781
2117.00,1.1781
2116.00,1.1781
2115.00,1.1780
2114.00,1.1779
2113.00,1.1779
2112.00,1.1778
2111.00,1.1778
2110.00,1.1777
2109.00,1.1776
2108.00,1.1776
2107.00,1.1776
2106.00,1.1775
2105.00,1.1774
2104.00,1.1774
2103.00,1.1773
2102.00,1.1772
2101.00,1.1772
2100.00,1.1772
2099.00,1.1771
2098.00,1.1770
2097.00,1.1769
2096.00,1.1769
2095.00,1.1768
2094.00,1.1768
2093.00,1.1767
2092.00,1.1767
2091.00,1.1767
2090.00,1.1766
2089.00,1.1765
2088.00,1.1765
2087.00,1.1764
2086.00,1.1763
2085.00,1.1762
2084.00,1.1761
2083.00,1.1761
2082.00,1.1760
2081.00,1.1759
2080.00,1.1759
2079.00,1.1758
2078.00,1.1757
2077.00,1.1757
2076.00,1.1756
2075.00,1.1756
2074.00,1.1755
2073.00,1.1754
2072.00,1.1753
2071.00,1.1752
2070.00,1.1751
2069.00,1.1751
2068.00,1.1750
2067.00,1.1750
2066.00,1.1749
2065.00,1.1748
2064.00,1.1748
2063.00,1.1747
2062.00,1.1746
2061.00,1.1746
2060.00,1.1745
2059.00,1.1744
2058.00,1.1743
2057.00,1.1743
2056.00,1.1742
2055.00,1.1741
2054.00,1.1740
2053.00,1.1740
2052.00,1.1740
2051.00,1.1739
2050.00,1.1738
2049.00,1.1738
2048.00,1.1737
2047.00,1.1736
2046.00,1.1736
2045.00,1.1735
2044.00,1.1735
2043.00,1.1734
2042.00,1.1733
2041.00,1.1733
2040.00,1.1732
2039.00,1.1731
2038.00,1.1730
2037.00,1.1729
2036.00,1.1729
2035.00,1.1728
2034.00,1.1727
2033.00,1.1727
2032.00,1.1726
2031.00,1.1726
2030.00,1.1725
2029.00,1.1724
2028.00,1.1724
2027.00,1.1724
2026.00,1.1723
2025.00,1.1722
2024.00,1.1721
2023.00,1.1720
2022.00,1.1720
2021.00,1.1720
2020.00,1.1719
2019.00,1.1719
2018.00,1.1718
2017.00,1.1718
2016.00,1.1717
2015.00,1.1716
2014.00,1.1715
2013.00,1.1715
2012.00,1.1714
2011.00,1.1714
2010.00,1.1713
2009.00,1.1713
2008.00,1.1713
2007.00,1.1712
2006.00,1.1712
2005.00,1.1711
2004.00,1.1711
2003.00,1.1710
2002.00,1.1709
2001.00,1.1709
2000.00,1.1709
1999.00,1.1708
1998.00,1.1708
1997.00,1.1707
1996.00,1.1707
1995.00,1.1706
1994.00,1.1706
1993.00,1.1706
1992.00,1.1706
1991.00,1.1705
1990.00,1.1704
1989.00,1.1703
1988.00,1.1703
1987.00,1.1702
1986.00,1.1702
1985.00,1.1701
1984.00,1.1701
1983.00,1.1701
1982.00,1.1700
1981.00,1.1700
1980.00,1.1699
1979.00,1.1699
1978.00,1.1699
1977.00,1.1698
1976.00,1.1698
1975.00,1.1698
1974.00,1.1698
1973.00,1.1697
1972.00,1.1697
1971.00,1.1696
1970.00,1.1696
1969.00,1.1696
1968.00,1.1696
1967.00,1.1696
1966.00,1.1695
1965.00,1.1694
1964.00,1.1694
1963.00,1.1693
1962.00,1.1693
1961.00,1.1693
1960.00,1.1692
1959.00,1.1692
1958.00,1.1693
1957.00,1.1693
1956.00,1.1693
1955.00,1.1692
1954.00,1.1692
1953.00,1.1692
1952.00,1.1691
1951.00,1.1691
1950.00,1.1691
1949.00,1.1691
1948.00,1.1691
1947.00,1.1691
1946.00,1.1691
1945.00,1.1691
1944.00,1.1692
1943.00,1.1692
1942.00,1.1691
1941.00,1.1690
1940.00,1.1690
1939.00,1.1689
1938.00,1.1689
1937.00,1.1689
1936.00,1.1689
1935.00,1.1689
1934.00,1.1689
1933.00,1.1690
1932.00,1.1690
1931.00,1.1689
1930.00,1.1689
1929.00,1.1689
1928.00,1.1689
1927.00,1.1689
1926.00,1.1689
1925.00,1.1690
1924.00,1.1691
1923.00,1.1691
1922.00,1.1690
1921.00,1.1690
1920.00,1.1691
1919.00,1.1692
1918.00,1.1691
1917.00,1.1690
1916.00,1.1689
1915.00,1.1688
1914.00,1.1688
1913.00,1.1689
1912.00,1.1690
1911.00,1.1690
1910.00,1.1690
1909.00,1.1690
1908.00,1.1691
1907.00,1.1690
1906.00,1.1690
1905.00,1.1690
1904.00,1.1691
1903.00,1.1691
1902.00,1.1690
1901.00,1.1690
1900.00,1.1691
1899.00,1.1691
1898.00,1.1691
1897.00,1.1691
1896.00,1.1692
1895.00,1.1692
1894.00,1.1691
1893.00,1.1691
1892.00,1.1692
1891.00,1.1693
1890.00,1.1693
1889.00,1.1693
1888.00,1.1692
1887.00,1.1692
1886.00,1.1691
1885.00,1.1691
1884.00,1.1692
1883.00,1.1692
1882.00,1.1692
1881.00,1.1692
1880.00,1.1693
1879.00,1.1693
1878.00,1.1692
1877.00,1.1692
1876.00,1.1693
1875.00,1.1693
1874.00,1.1692
1873.00,1.1692
1872.00,1.1695
1871.00,1.1697
1870.00,1.1698
1869.00,1.1698
1868.00,1.1697
1867.00,1.1695
1866.00,1.1693
1865.00,1.1693
1864.00,1.1694
1863.00,1.1695
1862.00,1.1694
1861.00,1.1694
1860.00,1.1695
1859.00,1.1695
1858.00,1.1694
1857.00,1.1695
1856.00,1.1696
1855.00,1.1696
1854.00,1.1695
1853.00,1.1696
1852.00,1.1696
1851.00,1.1696
1850.00,1.1696
1849.00,1.1696
1848.00,1.1698
1847.00,1.1700
1846.00,1.1702
1845.00,1.1704
1844.00,1.1704
1843.00,1.1701
1842.00,1.1698
1841.00,1.1697
1840.00,1.1697
1839.00,1.1698
1838.00,1.1698
1837.00,1.1699
1836.00,1.1700
1835.00,1.1700
1834.00,1.1701
1833.00,1.1703
1832.00,1.1705
1831.00,1.1707
1830.00,1.1707
1829.00,1.1706
1828.00,1.1705
1827.00,1.1704
1826.00,1.1703
1825.00,1.1704
1824.00,1.1705
1823.00,1.1705
1822.00,1.1706
1821.00,1.1706
1820.00,1.1708
1819.00,1.1709
1818.00,1.1708
1817.00,1.1709
1816.00,1.1710
1815.00,1.1710
1814.00,1.1710
1813.00,1.1710
1812.00,1.1711
1811.00,1.1712
1810.00,1.1711
1809.00,1.1711
1808.00,1.1713
1807.00,1.1713
1806.00,1.1713
1805.00,1.1713
1804.00,1.1714
1803.00,1.1715
1802.00,1.1714
1801.00,1.1714
1800.00,1.1715
1799.00,1.1716
1798.00,1.1715
1797.00,1.1716
1796.00,1.1718
1795.00,1.1718
1794.00,1.1718
1793.00,1.1718
1792.00,1.1719
1791.00,1.1719
1790.00,1.1718
1789.00,1.1719
1788.00,1.1720
1787.00,1.1721
1786.00,1.1722
1785.00,1.1722
1784.00,1.1724
1783.00,1.1725
1782.00,1.1725
1781.00,1.1726
1780.00,1.1726
1779.00,1.1727
1778.00,1.1727
1777.00,1.1728
1776.00,1.1729
1775.00,1.1731
1774.00,1.1733
1773.00,1.1733
1772.00,1.1734
1771.00,1.1734
1770.00,1.1734
1769.00,1.1734
1768.00,1.1735
1767.00,1.1737
1766.00,1.1738
1765.00,1.1738
1764.00,1.1740
1763.00,1.1742
1762.00,1.1743
1761.00,1.1743
1760.00,1.1742
1759.00,1.1743
1758.00,1.1745
1757.00,1.1745
1756.00,1.1744
1755.00,1.1744
1754.00,1.1744
1753.00,1.1743
1752.00,1.1742
1751.00,1.1743
1750.00,1.1746
1749.00,1.1748
1748.00,1.1749
1747.00,1.1751
1746.00,1.1753
1745.00,1.1754
1744.00,1.1755
1743.00,1.1756
1742.00,1.1757
1741.00,1.1757
1740.00,1.1758
1739.00,1.1758
1738.00,1.1758
1737.00,1.1759
1736.00,1.1758
1735.00,1.1757
1734.00,1.1756
1733.00,1.1758
1732.00,1.1761
1731.00,1.1764
1730.00,1.1765
1729.00,1.1767
1728.00,1.1769
1727.00,1.1770
1726.00,1.1770
1725.00,1.1772
1724.00,1.1774
1723.00,1.1774
1722.00,1.1772
1721.00,1.1772
1720.00,1.1774
1719.00,1.1774
1718.00,1.1772
1717.00,1.1773
1716.00,1.1777
1715.00,1.1777
1714.00,1.1774
1713.00,1.1774
1712.00,1.1778
1711.00,1.1779
1710.00,1.1778
1709.00,1.1778
1708.00,1.1781
1707.00,1.1782
1706.00,1.1780
1705.00,1.1779
1704.00,1.1781
1703.00,1.1782
1702.00,1.1780
1701.00,1.1779
1700.00,1.1780
1699.00,1.1781
1698.00,1.1782
1697.00,1.1784
1696.00,1.1788
1695.00,1.1790
1694.00,1.1789
1693.00,1.1788
1692.00,1.1788
1691.00,1.1789
1690.00,1.1789
1689.00,1.1789
1688.00,1.1788
1687.00,1.1790
1686.00,1.1794
1685.00,1.1797
1684.00,1.1797
1683.00,1.1795
1682.00,1.1795
1681.00,1.1795
1680.00,1.1794
1679.00,1.1793
1678.00,1.1794
1677.00,1.1795
1676.00,1.1793
1675.00,1.1792
1674.00,1.1794
1673.00,1.1796
1672.00,1.1795
1671.00,1.1794
1670.00,1.1796
1669.00,1.1798
1668.00,1.1798
1667.00,1.1798
1666.00,1.1800
1665.00,1.1802
1664.00,1.1802
1663.00,1.1801
1662.00,1.1802
1661.00,1.1802
1660.00,1.1801
1659.00,1.1801
1658.00,1.1802
1657.00,1.1803
1656.00,1.1803
1655.00,1.1804
1654.00,1.1806
1653.00,1.1807
1652.00,1.1807
1651.00,1.1808
1650.00,1.1808
1649.00,1.1807
1648.00,1.1806
1647.00,1.1806
1646.00,1.1806
1645.00,1.1806
1644.00,1.1807
1643.00,1.1807
1642.00,1.1807
1641.00,1.1806
1640.00,1.1806
1639.00,1.1807
1638.00,1.1808
1637.00,1.1808
1636.00,1.1807
1635.00,1.1807
1634.00,1.1808
1633.00,1.1809
1632.00,1.1809
1631.00,1.1809
1630.00,1.1808
1629.00,1.1809
1628.00,1.1809
1627.00,1.1809
1626.00,1.1809
1625.00,1.1810
1624.00,1.1809
1623.00,1.1808
1622.00,1.1808
1621.00,1.1810
1620.00,1.1810
1619.00,1.1809
1618.00,1.1811
1617.00,1.1813
1616.00,1.1813
1615.00,1.1812
1614.00,1.1812
1613.00,1.1813
1612.00,1.1812
1611.00,1.1812
1610.00,1.1813
1609.00,1.1816
1608.00,1.1817
1607.00,1.1818
1606.00,1.1820
1605.00,1.1821
1604.00,1.1820
1603.00,1.1820
1602.00,1.1821
1601.00,1.1822
1600.00,1.1821
1599.00,1.1820
1598.00,1.1822
1597.00,1.1823
1596.00,1.1823
1595.00,1.1822
1594.00,1.1823
1593.00,1.1824
1592.00,1.1823
1591.00,1.1823
1590.00,1.1823
1589.00,1.1824
1588.00,1.1823
1587.00,1.1823
1586.00,1.1824
1585.00,1.1825
1584.00,1.1824
1583.00,1.1824
1582.00,1.1826
1581.00,1.1828
1580.00,1.1828
1579.00,1.1828
1578.00,1.1831
1577.00,1.1832
1576.00,1.1830
1575.00,1.1829
1574.00,1.1829
1573.00,1.1829
1572.00,1.1827
1571.00,1.1826
1570.00,1.1828
1569.00,1.1828
1568.00,1.1825
1567.00,1.1824
1566.00,1.1826
1565.00,1.1827
1564.00,1.1826
1563.00,1.1826
1562.00,1.1831
1561.00,1.1835
1560.00,1.1833
1559.00,1.1830
1558.00,1.1831
1557.00,1.1832
1556.00,1.1831
1555.00,1.1829
1554.00,1.1829
1553.00,1.1829
1552.00,1.1828
1551.00,1.1828
1550.00,1.1829
1549.00,1.1829
1548.00,1.1828
1547.00,1.1827
1546.00,1.1829
1545.00,1.1832
1544.00,1.1833
1543.00,1.1834
1542.00,1.1834
1541.00,1.1834
1540.00,1.1832
1539.00,1.1830
1538.00,1.1830
1537.00,1.1833
1536.00,1.1833
1535.00,1.1832
1534.00,1.1832
1533.00,1.1832
1532.00,1.1832
1531.00,1.1831
1530.00,1.1831
1529.00,1.1831
1528.00,1.1832
1527.00,1.1833
1526.00,1.1832
1525.00,1.1831
1524.00,1.1831
1523.00,1.1830
1522.00,1.1831
1521.00,1.1831
1520.00,1.1832
1519.00,1.1831
1518.00,1.1829
1517.00,1.1828
1516.00,1.1828
1515.00,1.1828
1514.00,1.1828
1513.00,1.1827
1512.00,1.1828
1511.00,1.1830
1510.00,1.1829
1509.00,1.1827
1508.00,1.1825
1507.00,1.1824
1506.00,1.1822
1505.00,1.1821
1504.00,1.1822
1503.00,1.1823
1502.00,1.1821
1501.00,1.1818
1500.00,1.1816
1499.00,1.1815
1498.00,1.1813
1497.00,1.1812
1496.00,1.1815
1495.00,1.1822
1494.00,1.1828
1493.00,1.1832
1492.00,1.1836
1491.00,1.1838
1490.00,1.1838
1489.00,1.1838
1488.00,1.1839
1487.00,1.1838
1486.00,1.1836
1485.00,1.1835
1484.00,1.1835
1483.00,1.1833
1482.00,1.1831
1481.00,1.1830
1480.00,1.1830
1479.00,1.1829
1478.00,1.1827
1477.00,1.1825
1476.00,1.1825
1475.00,1.1824
1474.00,1.1821
1473.00,1.1820
1472.00,1.1820
1471.00,1.1821
1470.00,1.1822
1469.00,1.1823
1468.00,1.1825
1467.00,1.1825
1466.00,1.1824
1465.00,1.1822
1464.00,1.1821
1463.00,1.1821
1462.00,1.1821
1461.00,1.1820
1460.00,1.1819
1459.00,1.1820
1458.00,1.1819
1457.00,1.1814
1456.00,1.1810
1455.00,1.1810
1454.00,1.1813
1453.00,1.1815
1452.00,1.1817
1451.00,1.1821
1450.00,1.1825
1449.00,1.1826
1448.00,1.1826
1447.00,1.1827
1446.00,1.1827
1445.00,1.1823
1444.00,1.1820
1443.00,1.1820
1442.00,1.1821
1441.00,1.1819
1440.00,1.1818
1439.00,1.1819
1438.00,1.1819
1437.00,1.1816
1436.00,1.1814
1435.00,1.1816
1434.00,1.1818
1433.00,1.1816
1432.00,1.1815
1431.00,1.1816
1430.00,1.1817
1429.00,1.1815
1428.00,1.1814
1427.00,1.1815
1426.00,1.1815
1425.00,1.1813
1424.00,1.1810
1423.00,1.1812
1422.00,1.1815
1421.00,1.1816
1420.00,1.1816
1419.00,1.1816
1418.00,1.1815
1417.00,1.1811
1416.00,1.1808
1415.00,1.1809
1414.00,1.1811
1413.00,1.1810
1412.00,1.1807
1411.00,1.1808
1410.00,1.1809
1409.00,1.1808
1408.00,1.1805
1407.00,1.1805
1406.00,1.1806
1405.00,1.1807
1404.00,1.1806
1403.00,1.1808
1402.00,1.1810
1401.00,1.1810
1400.00,1.1809
1399.00,1.1808
1398.00,1.1809
1397.00,1.1809
1396.00,1.1808
1395.00,1.1808
1394.00,1.1809
1393.00,1.1808
1392.00,1.1805
1391.00,1.1803
1390.00,1.1804
1389.00,1.1805
1388.00,1.1803
1387.00,1.1802
1386.00,1.1801
1385.00,1.1801
1384.00,1.1801
1383.00,1.1802
1382.00,1.1803
1381.00,1.1802
1380.00,1.1800
1379.00,1.1799
1378.00,1.1799
1377.00,1.1799
1376.00,1.1798
1375.00,1.1798
1374.00,1.1798
1373.00,1.1798
1372.00,1.1796
1371.00,1.1795
1370.00,1.1795
1369.00,1.1794
1368.00,1.1793
1367.00,1.1793
1366.00,1.1793
1365.00,1.1793
1364.00,1.1794
1363.00,1.1793
1362.00,1.1793
1361.00,1.1792
1360.00,1.1791
1359.00,1.1790
1358.00,1.1790
1357.00,1.1789
1356.00,1.1788
1355.00,1.1788
1354.00,1.1788
1353.00,1.1788
1352.00,1.1788
1351.00,1.1787
1350.00,1.1787
1349.00,1.1787
1348.00,1.1786
1347.00,1.1785
1346.00,1.1785
1345.00,1.1785
1344.00,1.1784
1343.00,1.1784
1342.00,1.1783
1341.00,1.1783
1340.00,1.1782
1339.00,1.1782
1338.00,1.1783
1337.00,1.1783
1336.00,1.1783
1335.00,1.1782
1334.00,1.1781
1333.00,1.1781
1332.00,1.1780
1331.00,1.1779
1330.00,1.1780
1329.00,1.1779
1328.00,1.1778
1327.00,1.1778
1326.00,1.1777
1325.00,1.1777
1324.00,1.1776
1323.00,1.1775
1322.00,1.1776
1321.00,1.1776
1320.00,1.1775
1319.00,1.1775
1318.00,1.1774
1317.00,1.1773
1316.00,1.1772
1315.00,1.1772
1314.00,1.1772
1313.00,1.1772
1312.00,1.1771
1311.00,1.1771
1310.00,1.1771
1309.00,1.1770
1308.00,1.1769
1307.00,1.1768
1306.00,1.1768
1305.00,1.1768
1304.00,1.1767
1303.00,1.1767
1302.00,1.1767
1301.00,1.1766
1300.00,1.1766
1299.00,1.1765
1298.00,1.1765
1297.00,1.1765
1296.00,1.1764
1295.00,1.1763
1294.00,1.1763
1293.00,1.1762
1292.00,1.1761
1291.00,1.1760
1290.00,1.1760
1289.00,1.1760
1288.00,1.1760
1287.00,1.1760
1286.00,1.1760
1285.00,1.1760
1284.00,1.1758
1283.00,1.1757
1282.00,1.1757
1281.00,1.1757
1280.00,1.1756
1279.00,1.1756
1278.00,1.1756
1277.00,1.1756
1276.00,1.1756
1275.00,1.1755
1274.00,1.1756
1273.00,1.1755
1272.00,1.1755
1271.00,1.1754
1270.00,1.1754
1269.00,1.1753
1268.00,1.1752
1267.00,1.1752
1266.00,1.1753
1265.00,1.1753
1264.00,1.1754
1263.00,1.1756
1262.00,1.1758
1261.00,1.1760
1260.00,1.1761
1259.00,1.1762
1258.00,1.1764
1257.00,1.1764
1256.00,1.1763
1255.00,1.1762
1254.00,1.1762
1253.00,1.1761
1252.00,1.1760
1251.00,1.1759
1250.00,1.1759
1249.00,1.1759
1248.00,1.1759
1247.00,1.1760
1246.00,1.1761
1245.00,1.1761
1244.00,1.1761
1243.00,1.1761
1242.00,1.1762
1241.00,1.1762
1240.00,1.1762
1239.00,1.1762
1238.00,1.1763
1237.00,1.1764
1236.00,1.1765
1235.00,1.1766
1234.00,1.1767
1233.00,1.1768
1232.00,1.1768
1231.00,1.1768
1230.00,1.1768
1229.00,1.1769
1228.00,1.1768
1227.00,1.1769
1226.00,1.1769
1225.00,1.1769
1224.00,1.1769
1223.00,1.1770
1222.00,1.1771
1221.00,1.1771
1220.00,1.1771
1219.00,1.1771
1218.00,1.1771
1217.00,1.1771
1216.00,1.1771
1215.00,1.1771
1214.00,1.1772
1213.00,1.1773
1212.00,1.1774
1211.00,1.1775
1210.00,1.1776
1209.00,1.1777
1208.00,1.1778
1207.00,1.1778
1206.00,1.1779
1205.00,1.1779
1204.00,1.1778
1203.00,1.1778
1202.00,1.1779
1201.00,1.1780
1200.00,1.1780
1199.00,1.1781
1198.00,1.1782
1197.00,1.1783
1196.00,1.1784
1195.00,1.1785
1194.00,1.1786
1193.00,1.1786
1192.00,1.1786
1191.00,1.1786
1190.00,1.1787
1189.00,1.1789
1188.00,1.1789
1187.00,1.1791
1186.00,1.1792
1185.00,1.1792
1184.00,1.1792
1183.00,1.1792
1182.00,1.1793
1181.00,1.1794
1180.00,1.1796
1179.00,1.1799
1178.00,1.1801
1177.00,1.1801
1176.00,1.1800
1175.00,1.1800
1174.00,1.1802
1173.00,1.1803
1172.00,1.1804
1171.00,1.1805
1170.00,1.1807
1169.00,1.1808
1168.00,1.1808
1167.00,1.1809
1166.00,1.1811
1165.00,1.1813
1164.00,1.1813
1163.00,1.1813
1162.00,1.1814
1161.00,1.1814
1160.00,1.1814
1159.00,1.1814
1158.00,1.1815
1157.00,1.1816
1156.00,1.1816
1155.00,1.1816
1154.00,1.1816
1153.00,1.1816
1152.00,1.1816
1151.00,1.1817
1150.00,1.1818
1149.00,1.1819
1148.00,1.1818
1147.00,1.1819
1146.00,1.1820
1145.00,1.1820
1144.00,1.1819
1143.00,1.1819
1142.00,1.1819
1141.00,1.1819
1140.00,1.1818
1139.00,1.1818
1138.00,1.1819
1137.00,1.1820
1136.00,1.1819
1135.00,1.1818
1134.00,1.1818
1133.00,1.1818
1132.00,1.1817
1131.00,1.1817
1130.00,1.1817
1129.00,1.1815
1128.00,1.1814
1127.00,1.1813
1126.00,1.1813
1125.00,1.1814
1124.00,1.1814
1123.00,1.1814
1122.00,1.1814
1121.00,1.1813
1120.00,1.1810
1119.00,1.1808
1118.00,1.1808
1117.00,1.1808
1116.00,1.1807
1115.00,1.1807
1114.00,1.1808
1113.00,1.1808
1112.00,1.1808
1111.00,1.1806
1110.00,1.1805
1109.00,1.1804
1108.00,1.1801
1107.00,1.1799
1106.00,1.1799
1105.00,1.1797
1104.00,1.1796
1103.00,1.1795
1102.00,1.1795
1101.00,1.1794
1100.00,1.1793
1099.00,1.1792
1098.00,1.1791
1097.00,1.1790
1096.00,1.1788
1095.00,1.1786
1094.00,1.1785
1093.00,1.1783
1092.00,1.1781
1091.00,1.1779
1090.00,1.1777
1089.00,1.1774
1088.00,1.1771
1087.00,1.1767
1086.00,1.1765
1085.00,1.1762
1084.00,1.1758
1083.00,1.1755
1082.00,1.1753
1081.00,1.1751
1080.00,1.1746
1079.00,1.1743
1078.00,1.1740
1077.00,1.1738
1076.00,1.1736
1075.00,1.1735
1074.00,1.1736
1073.00,1.1735
1072.00,1.1732
1071.00,1.1729
1070.00,1.1726
1069.00,1.1723
1068.00,1.1720
1067.00,1.1718
1066.00,1.1717
1065.00,1.1714
1064.00,1.1709
1063.00,1.1705
1062.00,1.1703
1061.00,1.1699
1060.00,1.1695
1059.00,1.1691
1058.00,1.1688
1057.00,1.1683
1056.00,1.1678
1055.00,1.1673
1054.00,1.1672
1053.00,1.1670
1052.00,1.1668
1051.00,1.1666
1050.00,1.1664
1049.00,1.1660
1048.00,1.1655
1047.00,1.1650
1046.00,1.1647
1045.00,1.1644
1044.00,1.1641
1043.00,1.1638
1042.00,1.1635
1041.00,1.1630
1040.00,1.1623
1039.00,1.1618
1038.00,1.1616
1037.00,1.1614
1036.00,1.1611
1035.00,1.1607
1034.00,1.1604
1033.00,1.1599
1032.00,1.1593
1031.00,1.1588
1030.00,1.1584
1029.00,1.1579
1028.00,1.1574
1027.00,1.1569
1026.00,1.1566
1025.00,1.1563
1024.00,1.1558
1023.00,1.1552
1022.00,1.1549
1021.00,1.1546
1020.00,1.1541
1019.00,1.1538
1018.00,1.1534
1017.00,1.1531
1016.00,1.1526
1015.00,1.1524
1014.00,1.1523
1013.00,1.1521
1012.00,1.1516
1011.00,1.1512
1010.00,1.1509
1009.00,1.1505
1008.00,1.1499
1007.00,1.1493
1006.00,1.1489
1005.00,1.1485
1004.00,1.1482
1003.00,1.1481
1002.00,1.1484
1001.00,1.1486
1000.00,1.1483
