Created as New Dataset,Sample 034 By Administrator Date Monday, February 10 2020
cm-1,A
6000.00,1.1548
5999.00,1.1549
5998.00,1.1549
5997.00,1.1548
5996.00,1.1547
5995.00,1.1547
5994.00,1.1547
5993.00,1.1547
5992.00,1.1547
5991.00,1.1546
5990.00,1.1545
5989.00,1.1545
5988.00,1.1547
5987.00,1.1548
5986.00,1.1549
5985.00,1.1549
5984.00,1.1549
5983.00,1.1548
5982.00,1.1547
5981.00,1.1546
5980.00,1.1546
5979.00,1.1546
5978.00,1.1546
5977.00,1.1546
5976.00,1.1546
5975.00,1.1545
5974.00,1.1545
5973.00,1.1544
5972.00,1.1543
5971.00,1.1544
5970.00,1.1545
5969.00,1.1546
5968.00,1.1548
5967.00,1.1548
5966.00,1.1548
5965.00,1.1547
5964.00,1.1546
5963.00,1.1544
5962.00,1.1543
5961.00,1.1543
5960.00,1.1543
5959.00,1.1545
5958.00,1.1546
5957.00,1.1546
5956.00,1.1545
5955.00,1.1544
5954.00,1.1543
5953.00,1.1541
5952.00,1.1541
5951.00,1.1541
5950.00,1.1541
5949.00,1.1540
5948.00,1.1540
5947.00,1.1539
5946.00,1.1539
5945.00,1.1539
5944.00,1.1539
5943.00,1.1540
5942.00,1.1541
5941.00,1.1542
5940.00,1.1542
5939.00,1.1541
5938.00,1.1539
5937.00,1.1537
5936.00,1.1536
5935.00,1.1536
5934.00,1.1536
5933.00,1.1536
5932.00,1.1537
5931.00,1.1538
5930.00,1.1538
5929.00,1.1537
5928.00,1.1537
5927.00,1.1537
5926.00,1.1538
5925.00,1.1538
5924.00,1.1538
5923.00,1.1537
5922.00,1.1536
5921.00,1.1535
5920.00,1.1535
5919.00,1.1536
5918.00,1.1537
5917.00,1.1537
5916.00,1.1537
5915.00,1.1537
5914.00,1.1536
5913.00,1.1535
5912.00,1.1534
5911.00,1.1535
5910.00,1.1535
5909.00,1.1536
5908.00,1.1537
5907.00,1.1538
5906.00,1.1537
5905.00,1.1535
5904.00,1.1533
5903.00,1.1532
5902.00,1.1532
5901.00,1.1532
5900.00,1.1532
5899.00,1.1534
5898.00,1.1534
5897.00,1.1534
5896.00,1.1533
5895.00,1.1532
5894.00,1.1531
5893.00,1.1530
5892.00,1.1529
5891.00,1.1529
5890.00,1.1530
5889.00,1.1531
5888.00,1.1532
5887.00,1.1533
5886.00,1.1533
5885.00,1.1533
5884.00,1.1532
5883.00,1.1531
5882.00,1.1531
5881.00,1.1530
5880.00,1.1529
5879.00,1.1530
5878.00,1.1530
5877.00,1.1531
5876.00,1.1531
5875.00,1.1531
5874.00,1.1531
5873.00,1.1530
5872.00,1.1530
5871.00,1.1530
5870.00,1.1531
5869.00,1.1531
5868.00,1.1531
5867.00,1.1530
5866.00,1.1529
5865.00,1.1527
5864.00,1.1525
5863.00,1.1524
5862.00,1.1524
5861.00,1.1523
5860.00,1.1524
5859.00,1.1524
5858.00,1.1525
5857.00,1.1525
5856.00,1.1525
5855.00,1.1526
5854.00,1.1526
5853.00,1.1527
5852.00,1.1528
5851.00,1.1528
5850.00,1.1528
5849.00,1.1528
5848.00,1.1528
5847.00,1.1528
5846.00,1.1528
5845.00,1.1527
5844.00,1.1528
5843.00,1.1528
5842.00,1.1528
5841.00,1.1529
5840.00,1.1530
5839.00,1.1531
5838.00,1.1531
5837.00,1.1531
5836.00,1.1531
5835.00,1.1530
5834.00,1.1530
5833.00,1.1529
5832.00,1.1527
5831.00,1.1526
5830.00,1.1526
5829.00,1.1525
5828.00,1.1524
5827.00,1.1524
5826.00,1.1524
5825.00,1.1525
5824.00,1.1527
5823.00,1.1529
5822.00,1.1530
5821.00,1.1530
5820.00,1.1529
5819.00,1.1529
5818.00,1.1528
5817.00,1.1528
5816.00,1.1528
5815.00,1.1529
5814.00,1.1530
5813.00,1.1531
5812.00,1.1532
5811.00,1.1532
5810.00,1.1532
5809.00,1.1531
5808.00,1.1530
5807.00,1.1530
5806.00,1.1530
5805.00,1.1529
5804.00,1.1529
5803.00,1.1530
5802.00,1.1530
5801.00,1.1530
5800.00,1.1529
5799.00,1.1529
5798.00,1.1529
5797.00,1.1529
5796.00,1.1529
5795.00,1.1529
5794.00,1.1529
5793.00,1.1529
5792.00,1.1528
5791.00,1.1528
5790.00,1.1527
5789.00,1.1526
5788.00,1.1525
5787.00,1.1525
5786.00,1.1526
5785.00,1.1526
5784.00,1.1527
5783.00,1.1527
5782.00,1.1527
5781.00,1.1526
5780.00,1.1525
5779.00,1.1524
5778.00,1.1524
5777.00,1.1523
5776.00,1.1523
5775.00,1.1524
5774.00,1.1525
5773.00,1.1525
5772.00,1.1526
5771.00,1.1527
5770.00,1.1527
5769.00,1.1528
5768.00,1.1528
5767.00,1.1528
5766.00,1.1528
5765.00,1.1527
5764.00,1.1526
5763.00,1.1526
5762.00,1.1525
5761.00,1.1525
5760.00,1.1525
5759.00,1.1526
5758.00,1.1527
5757.00,1.1527
5756.00,1.1528
5755.00,1.1528
5754.00,1.1527
5753.00,1.1525
5752.00,1.1524
5751.00,1.1522
5750.00,1.1521
5749.00,1.1520
5748.00,1.1520
5747.00,1.1521
5746.00,1.1521
5745.00,1.1521
5744.00,1.1521
5743.00,1.1522
5742.00,1.1522
5741.00,1.1522
5740.00,1.1522
5739.00,1.1522
5738.00,1.1522
5737.00,1.1521
5736.00,1.1521
5735.00,1.1521
5734.00,1.1521
5733.00,1.1522
5732.00,1.1522
5731.00,1.1523
5730.00,1.1524
5729.00,1.1524
5728.00,1.1524
5727.00,1.1523
5726.00,1.1522
5725.00,1.1522
5724.00,1.1521
5723.00,1.1520
5722.00,1.1520
5721.00,1.1520
5720.00,1.1520
5719.00,1.1520
5718.00,1.1520
5717.00,1.1519
5716.00,1.1519
5715.00,1.1520
5714.00,1.1520
5713.00,1.1519
5712.00,1.1520
5711.00,1.1520
5710.00,1.1520
5709.00,1.1520
5708.00,1.1520
5707.00,1.1521
5706.00,1.1520
5705.00,1.1520
5704.00,1.1519
5703.00,1.1519
5702.00,1.1520
5701.00,1.1519
5700.00,1.1520
5699.00,1.1520
5698.00,1.1521
5697.00,1.1521
5696.00,1.1521
5695.00,1.1521
5694.00,1.1522
5693.00,1.1521
5692.00,1.1520
5691.00,1.1519
5690.00,1.1518
5689.00,1.1517
5688.00,1.1517
5687.00,1.1517
5686.00,1.1518
5685.00,1.1519
5684.00,1.1519
5683.00,1.1520
5682.00,1.1520
5681.00,1.1519
5680.00,1.1520
5679.00,1.1520
5678.00,1.1519
5677.00,1.1518
5676.00,1.1518
5675.00,1.1517
5674.00,1.1517
5673.00,1.1517
5672.00,1.1517
5671.00,1.1518
5670.00,1.1519
5669.00,1.1519
5668.00,1.1520
5667.00,1.1521
5666.00,1.1522
5665.00,1.1522
5664.00,1.1522
5663.00,1.1521
5662.00,1.1520
5661.00,1.1518
5660.00,1.1518
5659.00,1.1518
5658.00,1.1519
5657.00,1.1518
5656.00,1.1518
5655.00,1.1518
5654.00,1.1518
5653.00,1.1518
5652.00,1.1517
5651.00,1.1518
5650.00,1.1518
5649.00,1.1519
5648.00,1.1519
5647.00,1.1519
5646.00,1.1519
5645.00,1.1519
5644.00,1.1518
5643.00,1.1518
5642.00,1.1517
5641.00,1.1517
5640.00,1.1516
5639.00,1.1517
5638.00,1.1517
5637.00,1.1518
5636.00,1.1519
5635.00,1.1519
5634.00,1.1520
5633.00,1.1520
5632.00,1.1519
5631.00,1.1520
5630.00,1.1520
5629.00,1.1519
5628.00,1.1519
5627.00,1.1519
5626.00,1.1519
5625.00,1.1519
5624.00,1.1519
5623.00,1.1519
5622.00,1.1519
5621.00,1.1518
5620.00,1.1518
5619.00,1.1518
5618.00,1.1518
5617.00,1.1519
5616.00,1.1520
5615.00,1.1520
5614.00,1.1521
5613.00,1.1520
5612.00,1.1520
5611.00,1.1519
5610.00,1.1518
5609.00,1.1517
5608.00,1.1516
5607.00,1.1515
5606.00,1.1514
5605.00,1.1514
5604.00,1.1514
5603.00,1.1514
5602.00,1.1514
5601.00,1.1514
5600.00,1.1514
5599.00,1.1514
5598.00,1.1514
5597.00,1.1514
5596.00,1.1514
5595.00,1.1515
5594.00,1.1515
5593.00,1.1514
5592.00,1.1513
5591.00,1.1513
5590.00,1.1513
5589.00,1.1513
5588.00,1.1514
5587.00,1.1515
5586.00,1.1516
5585.00,1.1516
5584.00,1.1516
5583.00,1.1515
5582.00,1.1514
5581.00,1.1513
5580.00,1.1513
5579.00,1.1513
5578.00,1.1514
5577.00,1.1514
5576.00,1.1514
5575.00,1.1514
5574.00,1.1514
5573.00,1.1514
5572.00,1.1513
5571.00,1.1512
5570.00,1.1511
5569.00,1.1511
5568.00,1.1510
5567.00,1.1511
5566.00,1.1512
5565.00,1.1512
5564.00,1.1513
5563.00,1.1514
5562.00,1.1514
5561.00,1.1513
5560.00,1.1512
5559.00,1.1512
5558.00,1.1511
5557.00,1.1512
5556.00,1.1512
5555.00,1.1512
5554.00,1.1513
5553.00,1.1512
5552.00,1.1512
5551.00,1.1512
5550.00,1.1512
5549.00,1.1512
5548.00,1.1512
5547.00,1.1512
5546.00,1.1512
5545.00,1.1511
5544.00,1.1511
5543.00,1.1510
5542.00,1.1511
5541.00,1.1512
5540.00,1.1512
5539.00,1.1513
5538.00,1.1513
5537.00,1.1512
5536.00,1.1510
5535.00,1.1510
5534.00,1.1509
5533.00,1.1508
5532.00,1.1508
5531.00,1.1508
5530.00,1.1508
5529.00,1.1508
5528.00,1.1508
5527.00,1.1508
5526.00,1.1509
5525.00,1.1510
5524.00,1.1511
5523.00,1.1511
5522.00,1.1511
5521.00,1.1510
5520.00,1.1510
5519.00,1.1509
5518.00,1.1509
5517.00,1.1509
5516.00,1.1508
5515.00,1.1509
5514.00,1.1509
5513.00,1.1508
5512.00,1.1508
5511.00,1.1508
5510.00,1.1508
5509.00,1.1508
5508.00,1.1508
5507.00,1.1508
5506.00,1.1508
5505.00,1.1508
5504.00,1.1508
5503.00,1.1507
5502.00,1.1507
5501.00,1.1508
5500.00,1.1508
5499.00,1.1507
5498.00,1.1507
5497.00,1.1507
5496.00,1.1508
5495.00,1.1508
5494.00,1.1508
5493.00,1.1509
5492.00,1.1509
5491.00,1.1510
5490.00,1.1510
5489.00,1.1509
5488.00,1.1508
5487.00,1.1507
5486.00,1.1507
5485.00,1.1506
5484.00,1.1506
5483.00,1.1506
5482.00,1.1506
5481.00,1.1506
5480.00,1.1506
5479.00,1.1507
5478.00,1.1507
5477.00,1.1507
5476.00,1.1506
5475.00,1.1505
5474.00,1.1505
5473.00,1.1505
5472.00,1.1506
5471.00,1.1505
5470.00,1.1504
5469.00,1.1504
5468.00,1.1503
5467.00,1.1502
5466.00,1.1502
5465.00,1.1502
5464.00,1.1503
5463.00,1.1504
5462.00,1.1504
5461.00,1.1504
5460.00,1.1504
5459.00,1.1504
5458.00,1.1504
5457.00,1.1503
5456.00,1.1503
5455.00,1.1503
5454.00,1.1503
5453.00,1.1503
5452.00,1.1503
5451.00,1.1503
5450.00,1.1503
5449.00,1.1503
5448.00,1.1504
5447.00,1.1504
5446.00,1.1503
5445.00,1.1501
5444.00,1.1501
5443.00,1.1501
5442.00,1.1500
5441.00,1.1499
5440.00,1.1499
5439.00,1.1500
5438.00,1.1501
5437.00,1.1501
5436.00,1.1501
5435.00,1.1500
5434.00,1.1500
5433.00,1.1500
5432.00,1.1501
5431.00,1.1500
5430.00,1.1499
5429.00,1.1498
5428.00,1.1498
5427.00,1.1500
5426.00,1.1501
5425.00,1.1503
5424.00,1.1504
5423.00,1.1505
5422.00,1.1506
5421.00,1.1506
5420.00,1.1505
5419.00,1.1504
5418.00,1.1503
5417.00,1.1501
5416.00,1.1499
5415.00,1.1497
5414.00,1.1496
5413.00,1.1496
5412.00,1.1497
5411.00,1.1498
5410.00,1.1498
5409.00,1.1499
5408.00,1.1500
5407.00,1.1502
5406.00,1.1502
5405.00,1.1502
5404.00,1.1502
5403.00,1.1503
5402.00,1.1502
5401.00,1.1502
5400.00,1.1501
5399.00,1.1500
5398.00,1.1500
5397.00,1.1499
5396.00,1.1498
5395.00,1.1498
5394.00,1.1497
5393.00,1.1496
5392.00,1.1496
5391.00,1.1497
5390.00,1.1498
5389.00,1.1498
5388.00,1.1499
5387.00,1.1500
5386.00,1.1500
5385.00,1.1500
5384.00,1.1501
5383.00,1.1500
5382.00,1.1499
5381.00,1.1498
5380.00,1.1498
5379.00,1.1499
5378.00,1.1499
5377.00,1.1499
5376.00,1.1499
5375.00,1.1500
5374.00,1.1500
5373.00,1.1500
5372.00,1.1500
5371.00,1.1501
5370.00,1.1501
5369.00,1.1501
5368.00,1.1501
5367.00,1.1501
5366.00,1.1501
5365.00,1.1501
5364.00,1.1500
5363.00,1.1500
5362.00,1.1501
5361.00,1.1501
5360.00,1.1500
5359.00,1.1499
5358.00,1.1499
5357.00,1.1499
5356.00,1.1500
5355.00,1.1500
5354.00,1.1499
5353.00,1.1500
5352.00,1.1501
5351.00,1.1501
5350.00,1.1501
5349.00,1.1501
5348.00,1.1501
5347.00,1.1502
5346.00,1.1502
5345.00,1.1500
5344.00,1.1499
5343.00,1.1499
5342.00,1.1500
5341.00,1.1500
5340.00,1.1500
5339.00,1.1500
5338.00,1.1501
5337.00,1.1502
5336.00,1.1503
5335.00,1.1504
5334.00,1.1504
5333.00,1.1502
5332.00,1.1502
5331.00,1.1502
5330.00,1.1502
5329.00,1.1502
5328.00,1.1502
5327.00,1.1502
5326.00,1.1502
5325.00,1.1503
5324.00,1.1503
5323.00,1.1503
5322.00,1.1503
5321.00,1.1504
5320.00,1.1504
5319.00,1.1504
5318.00,1.1504
5317.00,1.1504
5316.00,1.1504
5315.00,1.1505
5314.00,1.1506
5313.00,1.1506
5312.00,1.1506
5311.00,1.1507
5310.00,1.1507
5309.00,1.1506
5308.00,1.1505
5307.00,1.1505
5306.00,1.1505
5305.00,1.1505
5304.00,1.1505
5303.00,1.1505
5302.00,1.1505
5301.00,1.1505
5300.00,1.1505
5299.00,1.1505
5298.00,1.1506
5297.00,1.1506
5296.00,1.1506
5295.00,1.1506
5294.00,1.1506
5293.00,1.1506
5292.00,1.1506
5291.00,1.1506
5290.00,1.1505
5289.00,1.1506
5288.00,1.1507
5287.00,1.1508
5286.00,1.1508
5285.00,1.1507
5284.00,1.1508
5283.00,1.1509
5282.00,1.1510
5281.00,1.1510
5280.00,1.1510
5279.00,1.1511
5278.00,1.1512
5277.00,1.1512
5276.00,1.1512
5275.00,1.1512
5274.00,1.1512
5273.00,1.1512
5272.00,1.1511
5271.00,1.1511
5270.00,1.1510
5269.00,1.1509
5268.00,1.1508
5267.00,1.1508
5266.00,1.1508
5265.00,1.1508
5264.00,1.1509
5263.00,1.1510
5262.00,1.1512
5261.00,1.1512
5260.00,1.1512
5259.00,1.1513
5258.00,1.1514
5257.00,1.1514
5256.00,1.1515
5255.00,1.1516
5254.00,1.1516
5253.00,1.1517
5252.00,1.1518
5251.00,1.1518
5250.00,1.1518
5249.00,1.1518
5248.00,1.1518
5247.00,1.1519
5246.00,1.1520
5245.00,1.1520
5244.00,1.1520
5243.00,1.1521
5242.00,1.1523
5241.00,1.1524
5240.00,1.1525
5239.00,1.1526
5238.00,1.1527
5237.00,1.1528
5236.00,1.1528
5235.00,1.1528
5234.00,1.1528
5233.00,1.1528
5232.00,1.1528
5231.00,1.1528
5230.00,1.1528
5229.00,1.1529
5228.00,1.1530
5227.00,1.1530
5226.00,1.1529
5225.00,1.1529
5224.00,1.1530
5223.00,1.1532
5222.00,1.1533
5221.00,1.1535
5220.00,1.1536
5219.00,1.1536
5218.00,1.1537
5217.00,1.1537
5216.00,1.1537
5215.00,1.1537
5214.00,1.1537
5213.00,1.1538
5212.00,1.1538
5211.00,1.1539
5210.00,1.1539
5209.00,1.1539
5208.00,1.1540
5207.00,1.1540
5206.00,1.1541
5205.00,1.1542
5204.00,1.1544
5203.00,1.1544
5202.00,1.1544
5201.00,1.1544
5200.00,1.1544
5199.00,1.1544
5198.00,1.1545
5197.00,1.1546
5196.00,1.1547
5195.00,1.1548
5194.00,1.1549
5193.00,1.1549
5192.00,1.1549
5191.00,1.1549
5190.00,1.1550
5189.00,1.1551
5188.00,1.1552
5187.00,1.1554
5186.00,1.1555
5185.00,1.1555
5184.00,1.1556
5183.00,1.1557
5182.00,1.1557
5181.00,1.1557
5180.00,1.1558
5179.00,1.1558
5178.00,1.1559
5177.00,1.1559
5176.00,1.1560
5175.00,1.1560
5174.00,1.1560
5173.00,1.1560
5172.00,1.1561
5171.00,1.1562
5170.00,1.1563
5169.00,1.1564
5168.00,1.1565
5167.00,1.1565
5166.00,1.1565
5165.00,1.1565
5164.00,1.1565
5163.00,1.1566
5162.00,1.1566
5161.00,1.1566
5160.00,1.1567
5159.00,1.1567
5158.00,1.1568
5157.00,1.1569
5156.00,1.1570
5155.00,1.1571
5154.00,1.1572
5153.00,1.1572
5152.00,1.1572
5151.00,1.1572
5150.00,1.1572
5149.00,1.1573
5148.00,1.1574
5147.00,1.1575
5146.00,1.1576
5145.00,1.1576
5144.00,1.1577
5143.00,1.1577
5142.00,1.1578
5141.00,1.1578
5140.00,1.1578
5139.00,1.1578
5138.00,1.1577
5137.00,1.1577
5136.00,1.1578
5135.00,1.1578
5134.00,1.1579
5133.00,1.1580
5132.00,1.1580
5131.00,1.1581
5130.00,1.1582
5129.00,1.1582
5128.00,1.1583
5127.00,1.1584
5126.00,1.1584
5125.00,1.1584
5124.00,1.1584
5123.00,1.1584
5122.00,1.1584
5121.00,1.1584
5120.00,1.1585
5119.00,1.1585
5118.00,1.1586
5117.00,1.1586
5116.00,1.1586
5115.00,1.1587
5114.00,1.1587
5113.00,1.1588
5112.00,1.1588
5111.00,1.1588
5110.00,1.1587
5109.00,1.1587
5108.00,1.1587
5107.00,1.1587
5106.00,1.1588
5105.00,1.1588
5104.00,1.1588
5103.00,1.1589
5102.00,1.1589
5101.00,1.1589
5100.00,1.1589
5099.00,1.1589
5098.00,1.1590
5097.00,1.1590
5096.00,1.1590
5095.00,1.1591
5094.00,1.1591
5093.00,1.1591
5092.00,1.1590
5091.00,1.1590
5090.00,1.1590
5089.00,1.1590
5088.00,1.1590
5087.00,1.1590
5086.00,1.1590
5085.00,1.1590
5084.00,1.1590
5083.00,1.1591
5082.00,1.1591
5081.00,1.1590
5080.00,1.1590
5079.00,1.1590
5078.00,1.1590
5077.00,1.1591
5076.00,1.1592
5075.00,1.1593
5074.00,1.1594
5073.00,1.1594
5072.00,1.1595
5071.00,1.1596
5070.00,1.1597
5069.00,1.1597
5068.00,1.1597
5067.00,1.1596
5066.00,1.1596
5065.00,1.1595
5064.00,1.1595
5063.00,1.1594
5062.00,1.1595
5061.00,1.1595
5060.00,1.1596
5059.00,1.1596
5058.00,1.1597
5057.00,1.1597
5056.00,1.1596
5055.00,1.1596
5054.00,1.1595
5053.00,1.1595
5052.00,1.1594
5051.00,1.1595
5050.00,1.1595
5049.00,1.1596
5048.00,1.1596
5047.00,1.1596
5046.00,1.1596
5045.00,1.1597
5044.00,1.1597
5043.00,1.1597
5042.00,1.1597
5041.00,1.1597
5040.00,1.1597
5039.00,1.1596
5038.00,1.1596
5037.00,1.1596
5036.00,1.1596
5035.00,1.1596
5034.00,1.1596
5033.00,1.1596
5032.00,1.1596
5031.00,1.1596
5030.00,1.1597
5029.00,1.1597
5028.00,1.1597
5027.00,1.1597
5026.00,1.1597
5025.00,1.1597
5024.00,1.1597
5023.00,1.1597
5022.00,1.1597
5021.00,1.1597
5020.00,1.1597
5019.00,1.1597
5018.00,1.1597
5017.00,1.1597
5016.00,1.1596
5015.00,1.1597
5014.00,1.1596
5013.00,1.1596
5012.00,1.1596
5011.00,1.1596
5010.00,1.1596
5009.00,1.1595
5008.00,1.1595
5007.00,1.1595
5006.00,1.1595
5005.00,1.1595
5004.00,1.1594
5003.00,1.1594
5002.00,1.1594
5001.00,1.1594
5000.00,1.1595
4999.00,1.1595
4998.00,1.1595
4997.00,1.1595
4996.00,1.1594
4995.00,1.1594
4994.00,1.1593
4993.00,1.1593
4992.00,1.1593
4991.00,1.1593
4990.00,1.1593
4989.00,1.1594
4988.00,1.1594
4987.00,1.1594
4986.00,1.1595
4985.00,1.1594
4984.00,1.1594
4983.00,1.1593
4982.00,1.1593
4981.00,1.1592
4980.00,1.1592
4979.00,1.1592
4978.00,1.1593
4977.00,1.1593
4976.00,1.1594
4975.00,1.1594
4974.00,1.1594
4973.00,1.1593
4972.00,1.1593
4971.00,1.1593
4970.00,1.1592
4969.00,1.1592
4968.00,1.1592
4967.00,1.1592
4966.00,1.1592
4965.00,1.1591
4964.00,1.1591
4963.00,1.1590
4962.00,1.1591
4961.00,1.1591
4960.00,1.1591
4959.00,1.1591
4958.00,1.1591
4957.00,1.1590
4956.00,1.1590
4955.00,1.1590
4954.00,1.1590
4953.00,1.1590
4952.00,1.1590
4951.00,1.1590
4950.00,1.1590
4949.00,1.1591
4948.00,1.1591
4947.00,1.1591
4946.00,1.1591
4945.00,1.1590
4944.00,1.1590
4943.00,1.1589
4942.00,1.1588
4941.00,1.1588
4940.00,1.1588
4939.00,1.1588
4938.00,1.1588
4937.00,1.1588
4936.00,1.1588
4935.00,1.1588
4934.00,1.1588
4933.00,1.1588
4932.00,1.1588
4931.00,1.1589
4930.00,1.1589
4929.00,1.1588
4928.00,1.1588
4927.00,1.1588
4926.00,1.1588
4925.00,1.1588
4924.00,1.1588
4923.00,1.1588
4922.00,1.1587
4921.00,1.1587
4920.00,1.1586
4919.00,1.1586
4918.00,1.1586
4917.00,1.1586
4916.00,1.1586
4915.00,1.1585
4914.00,1.1585
4913.00,1.1584
4912.00,1.1584
4911.00,1.1584
4910.00,1.1584
4909.00,1.1584
4908.00,1.1583
4907.00,1.1582
4906.00,1.1582
4905.00,1.1581
4904.00,1.1581
4903.00,1.1582
4902.00,1.1582
4901.00,1.1583
4900.00,1.1583
4899.00,1.1583
4898.00,1.1583
4897.00,1.1583
4896.00,1.1582
4895.00,1.1582
4894.00,1.1582
4893.00,1.1581
4892.00,1.1581
4891.00,1.1581
4890.00,1.1581
4889.00,1.1581
4888.00,1.1581
4887.00,1.1581
4886.00,1.1581
4885.00,1.1580
4884.00,1.1580
4883.00,1.1579
4882.00,1.1579
4881.00,1.1578
4880.00,1.1578
4879.00,1.1578
4878.00,1.1578
4877.00,1.1577
4876.00,1.1577
4875.00,1.1577
4874.00,1.1577
4873.00,1.1577
4872.00,1.1577
4871.00,1.1577
4870.00,1.1577
4869.00,1.1577
4868.00,1.1577
4867.00,1.1576
4866.00,1.1576
4865.00,1.1575
4864.00,1.1574
4863.00,1.1574
4862.00,1.1574
4861.00,1.1574
4860.00,1.1574
4859.00,1.1574
4858.00,1.1574
4857.00,1.1574
4856.00,1.1574
4855.00,1.1573
4854.00,1.1573
4853.00,1.1573
4852.00,1.1572
4851.00,1.1572
4850.00,1.1572
4849.00,1.1572
4848.00,1.1572
4847.00,1.1571
4846.00,1.1571
4845.00,1.1571
4844.00,1.1571
4843.00,1.1571
4842.00,1.1571
4841.00,1.1571
4840.00,1.1570
4839.00,1.1569
4838.00,1.1568
4837.00,1.1568
4836.00,1.1567
4835.00,1.1567
4834.00,1.1568
4833.00,1.1568
4832.00,1.1567
4831.00,1.1567
4830.00,1.1567
4829.00,1.1566
4828.00,1.1566
4827.00,1.1565
4826.00,1.1565
4825.00,1.1565
4824.00,1.1564
4823.00,1.1564
4822.00,1.1564
4821.00,1.1564
4820.00,1.1564
4819.00,1.1564
4818.00,1.1564
4817.00,1.1563
4816.00,1.1563
4815.00,1.1562
4814.00,1.1562
4813.00,1.1561
4812.00,1.1561
4811.00,1.1560
4810.00,1.1560
4809.00,1.1560
4808.00,1.1560
4807.00,1.1559
4806.00,1.1559
4805.00,1.1559
4804.00,1.1558
4803.00,1.1558
4802.00,1.1558
4801.00,1.1558
4800.00,1.1558
4799.00,1.1557
4798.00,1.1556
4797.00,1.1555
4796.00,1.1554
4795.00,1.1554
4794.00,1.1554
4793.00,1.1554
4792.00,1.1554
4791.00,1.1554
4790.00,1.1553
4789.00,1.1553
4788.00,1.1552
4787.00,1.1551
4786.00,1.1550
4785.00,1.1550
4784.00,1.1550
4783.00,1.1550
4782.00,1.1550
4781.00,1.1549
4780.00,1.1549
4779.00,1.1548
4778.00,1.1548
4777.00,1.1548
4776.00,1.1548
4775.00,1.1548
4774.00,1.1548
4773.00,1.1548
4772.00,1.1548
4771.00,1.1547
4770.00,1.1547
4769.00,1.1546
4768.00,1.1546
4767.00,1.1545
4766.00,1.1545
4765.00,1.1544
4764.00,1.1543
4763.00,1.1542
4762.00,1.1541
4761.00,1.1540
4760.00,1.1540
4759.00,1.1540
4758.00,1.1539
4757.00,1.1538
4756.00,1.1537
4755.00,1.1536
4754.00,1.1536
4753.00,1.1535
4752.00,1.1534
4751.00,1.1533
4750.00,1.1533
4749.00,1.1532
4748.00,1.1530
4747.00,1.1529
4746.00,1.1529
4745.00,1.1528
4744.00,1.1528
4743.00,1.1528
4742.00,1.1527
4741.00,1.1527
4740.00,1.1526
4739.00,1.1525
4738.00,1.1524
4737.00,1.1523
4736.00,1.1522
4735.00,1.1521
4734.00,1.1520
4733.00,1.1519
4732.00,1.1518
4731.00,1.1517
4730.00,1.1516
4729.00,1.1516
4728.00,1.1516
4727.00,1.1516
4726.00,1.1516
4725.00,1.1515
4724.00,1.1515
4723.00,1.1515
4722.00,1.1515
4721.00,1.1515
4720.00,1.1515
4719.00,1.1515
4718.00,1.1514
4717.00,1.1513
4716.00,1.1513
4715.00,1.1512
4714.00,1.1512
4713.00,1.1512
4712.00,1.1512
4711.00,1.1512
4710.00,1.1512
4709.00,1.1512
4708.00,1.1513
4707.00,1.1513
4706.00,1.1514
4705.00,1.1514
4704.00,1.1515
4703.00,1.1515
4702.00,1.1515
4701.00,1.1515
4700.00,1.1515
4699.00,1.1515
4698.00,1.1516
4697.00,1.1515
4696.00,1.1514
4695.00,1.1513
4694.00,1.1512
4693.00,1.1511
4692.00,1.1510
4691.00,1.1509
4690.00,1.1509
4689.00,1.1508
4688.00,1.1507
4687.00,1.1507
4686.00,1.1506
4685.00,1.1506
4684.00,1.1506
4683.00,1.1506
4682.00,1.1506
4681.00,1.1506
4680.00,1.1506
4679.00,1.1505
4678.00,1.1505
4677.00,1.1504
4676.00,1.1504
4675.00,1.1504
4674.00,1.1504
4673.00,1.1503
4672.00,1.1503
4671.00,1.1504
4670.00,1.1504
4669.00,1.1504
4668.00,1.1504
4667.00,1.1504
4666.00,1.1504
4665.00,1.1504
4664.00,1.1504
4663.00,1.1504
4662.00,1.1503
4661.00,1.1503
4660.00,1.1502
4659.00,1.1503
4658.00,1.1503
4657.00,1.1503
4656.00,1.1503
4655.00,1.1502
4654.00,1.1502
4653.00,1.1502
4652.00,1.1502
4651.00,1.1502
4650.00,1.1502
4649.00,1.1502
4648.00,1.1502
4647.00,1.1502
4646.00,1.1502
4645.00,1.1503
4644.00,1.1503
4643.00,1.1503
4642.00,1.1502
4641.00,1.1502
4640.00,1.1502
4639.00,1.1503
4638.00,1.1503
4637.00,1.1503
4636.00,1.1503
4635.00,1.1503
4634.00,1.1503
4633.00,1.1503
4632.00,1.1503
4631.00,1.1503
4630.00,1.1502
4629.00,1.1502
4628.00,1.1502
4627.00,1.1501
4626.00,1.1501
4625.00,1.1501
4624.00,1.1501
4623.00,1.1501
4622.00,1.1501
4621.00,1.1502
4620.00,1.1502
4619.00,1.1503
4618.00,1.1503
4617.00,1.1503
4616.00,1.1502
4615.00,1.1502
4614.00,1.1501
4613.00,1.1501
4612.00,1.1501
4611.00,1.1501
4610.00,1.1501
4609.00,1.1501
4608.00,1.1501
4607.00,1.1501
4606.00,1.1501
4605.00,1.1501
4604.00,1.1501
4603.00,1.1501
4602.00,1.1501
4601.00,1.1501
4600.00,1.1501
4599.00,1.1501
4598.00,1.1501
4597.00,1.1500
4596.00,1.1500
4595.00,1.1501
4594.00,1.1501
4593.00,1.1501
4592.00,1.1501
4591.00,1.1500
4590.00,1.1500
4589.00,1.1500
4588.00,1.1500
4587.00,1.1500
4586.00,1.1500
4585.00,1.1500
4584.00,1.1500
4583.00,1.1500
4582.00,1.1500
4581.00,1.1500
4580.00,1.1500
4579.00,1.1500
4578.00,1.1500
4577.00,1.1499
4576.00,1.1498
4575.00,1.1498
4574.00,1.1498
4573.00,1.1498
4572.00,1.1498
4571.00,1.1499
4570.00,1.1499
4569.00,1.1499
4568.00,1.1499
4567.00,1.1499
4566.00,1.1499
4565.00,1.1499
4564.00,1.1499
4563.00,1.1499
4562.00,1.1499
4561.00,1.1498
4560.00,1.1498
4559.00,1.1498
4558.00,1.1498
4557.00,1.1498
4556.00,1.1498
4555.00,1.1498
4554.00,1.1498
4553.00,1.1498
4552.00,1.1498
4551.00,1.1497
4550.00,1.1497
4549.00,1.1497
4548.00,1.1496
4547.00,1.1496
4546.00,1.1496
4545.00,1.1496
4544.00,1.1496
4543.00,1.1496
4542.00,1.1496
4541.00,1.1496
4540.00,1.1496
4539.00,1.1496
4538.00,1.1496
4537.00,1.1496
4536.00,1.1496
4535.00,1.1495
4534.00,1.1495
4533.00,1.1495
4532.00,1.1495
4531.00,1.1496
4530.00,1.1496
4529.00,1.1495
4528.00,1.1495
4527.00,1.1494
4526.00,1.1493
4525.00,1.1493
4524.00,1.1493
4523.00,1.1493
4522.00,1.1493
4521.00,1.1493
4520.00,1.1493
4519.00,1.1493
4518.00,1.1493
4517.00,1.1493
4516.00,1.1493
4515.00,1.1493
4514.00,1.1493
4513.00,1.1493
4512.00,1.1492
4511.00,1.1492
4510.00,1.1492
4509.00,1.1492
4508.00,1.1492
4507.00,1.1492
4506.00,1.1492
4505.00,1.1491
4504.00,1.1491
4503.00,1.1492
4502.00,1.1492
4501.00,1.1492
4500.00,1.1491
4499.00,1.1491
4498.00,1.1491
4497.00,1.1491
4496.00,1.1491
4495.00,1.1491
4494.00,1.1490
4493.00,1.1490
4492.00,1.1490
4491.00,1.1490
4490.00,1.1489
4489.00,1.1490
4488.00,1.1490
4487.00,1.1490
4486.00,1.1490
4485.00,1.1490
4484.00,1.1490
4483.00,1.1491
4482.00,1.1491
4481.00,1.1491
4480.00,1.1491
4479.00,1.1491
4478.00,1.1490
4477.00,1.1491
4476.00,1.1491
4475.00,1.1491
4474.00,1.1492
4473.00,1.1492
4472.00,1.1492
4471.00,1.1493
4470.00,1.1493
4469.00,1.1492
4468.00,1.1492
4467.00,1.1492
4466.00,1.1492
4465.00,1.1492
4464.00,1.1491
4463.00,1.1491
4462.00,1.1491
4461.00,1.1491
4460.00,1.1491
4459.00,1.1491
4458.00,1.1490
4457.00,1.1490
4456.00,1.1490
4455.00,1.1490
4454.00,1.1490
4453.00,1.1490
4452.00,1.1490
4451.00,1.1490
4450.00,1.1490
4449.00,1.1490
4448.00,1.1489
4447.00,1.1489
4446.00,1.1489
4445.00,1.1490
4444.00,1.1490
4443.00,1.1490
4442.00,1.1489
4441.00,1.1489
4440.00,1.1489
4439.00,1.1488
4438.00,1.1488
4437.00,1.1488
4436.00,1.1487
4435.00,1.1488
4434.00,1.1488
4433.00,1.1489
4432.00,1.1489
4431.00,1.1489
4430.00,1.1489
4429.00,1.1488
4428.00,1.1488
4427.00,1.1488
4426.00,1.1488
4425.00,1.1488
4424.00,1.1488
4423.00,1.1488
4422.00,1.1488
4421.00,1.1488
4420.00,1.1488
4419.00,1.1488
4418.00,1.1488
4417.00,1.1488
4416.00,1.1488
4415.00,1.1488
4414.00,1.1488
4413.00,1.1487
4412.00,1.1487
4411.00,1.1488
4410.00,1.1488
4409.00,1.1488
4408.00,1.1488
4407.00,1.1488
4406.00,1.1488
4405.00,1.1488
4404.00,1.1488
4403.00,1.1488
4402.00,1.1488
4401.00,1.1488
4400.00,1.1488
4399.00,1.1487
4398.00,1.1487
4397.00,1.1487
4396.00,1.1486
4395.00,1.1486
4394.00,1.1487
4393.00,1.1487
4392.00,1.1487
4391.00,1.1488
4390.00,1.1488
4389.00,1.1488
4388.00,1.1488
4387.00,1.1488
4386.00,1.1488
4385.00,1.1488
4384.00,1.1488
4383.00,1.1489
4382.00,1.1490
4381.00,1.1490
4380.00,1.1491
4379.00,1.1491
4378.00,1.1491
4377.00,1.1491
4376.00,1.1491
4375.00,1.1491
4374.00,1.1491
4373.00,1.1491
4372.00,1.1491
4371.00,1.1492
4370.00,1.1492
4369.00,1.1492
4368.00,1.1492
4367.00,1.1492
4366.00,1.1491
4365.00,1.1491
4364.00,1.1492
4363.00,1.1492
4362.00,1.1492
4361.00,1.1492
4360.00,1.1492
4359.00,1.1491
4358.00,1.1491
4357.00,1.1491
4356.00,1.1491
4355.00,1.1492
4354.00,1.1493
4353.00,1.1493
4352.00,1.1493
4351.00,1.1493
4350.00,1.1493
4349.00,1.1493
4348.00,1.1493
4347.00,1.1493
4346.00,1.1492
4345.00,1.1492
4344.00,1.1492
4343.00,1.1493
4342.00,1.1493
4341.00,1.1493
4340.00,1.1494
4339.00,1.1494
4338.00,1.1494
4337.00,1.1494
4336.00,1.1493
4335.00,1.1493
4334.00,1.1493
4333.00,1.1493
4332.00,1.1493
4331.00,1.1494
4330.00,1.1494
4329.00,1.1494
4328.00,1.1494
4327.00,1.1495
4326.00,1.1494
4325.00,1.1494
4324.00,1.1494
4323.00,1.1495
4322.00,1.1495
4321.00,1.1495
4320.00,1.1495
4319.00,1.1495
4318.00,1.1495
4317.00,1.1495
4316.00,1.1495
4315.00,1.1495
4314.00,1.1496
4313.00,1.1496
4312.00,1.1496
4311.00,1.1496
4310.00,1.1496
4309.00,1.1496
4308.00,1.1496
4307.00,1.1496
4306.00,1.1496
4305.00,1.1495
4304.00,1.1495
4303.00,1.1496
4302.00,1.1496
4301.00,1.1497
4300.00,1.1496
4299.00,1.1496
4298.00,1.1496
4297.00,1.1496
4296.00,1.1496
4295.00,1.1496
4294.00,1.1497
4293.00,1.1497
4292.00,1.1498
4291.00,1.1498
4290.00,1.1498
4289.00,1.1499
4288.00,1.1499
4287.00,1.1499
4286.00,1.1499
4285.00,1.1499
4284.00,1.1499
4283.00,1.1499
4282.00,1.1499
4281.00,1.1499
4280.00,1.1499
4279.00,1.1499
4278.00,1.1499
4277.00,1.1499
4276.00,1.1500
4275.00,1.1500
4274.00,1.1500
4273.00,1.1500
4272.00,1.1501
4271.00,1.1501
4270.00,1.1501
4269.00,1.1501
4268.00,1.1501
4267.00,1.1501
4266.00,1.1501
4265.00,1.1501
4264.00,1.1502
4263.00,1.1502
4262.00,1.1502
4261.00,1.1502
4260.00,1.1502
4259.00,1.1502
4258.00,1.1502
4257.00,1.1502
4256.00,1.1502
4255.00,1.1503
4254.00,1.1503
4253.00,1.1503
4252.00,1.1503
4251.00,1.1503
4250.00,1.1503
4249.00,1.1503
4248.00,1.1503
4247.00,1.1503
4246.00,1.1503
4245.00,1.1503
4244.00,1.1503
4243.00,1.1503
4242.00,1.1503
4241.00,1.1503
4240.00,1.1502
4239.00,1.1502
4238.00,1.1501
4237.00,1.1501
4236.00,1.1501
4235.00,1.1501
4234.00,1.1501
4233.00,1.1502
4232.00,1.1502
4231.00,1.1502
4230.00,1.1503
4229.00,1.1503
4228.00,1.1503
4227.00,1.1503
4226.00,1.1502
4225.00,1.1502
4224.00,1.1502
4223.00,1.1502
4222.00,1.1502
4221.00,1.1502
4220.00,1.1502
4219.00,1.1502
4218.00,1.1502
4217.00,1.1502
4216.00,1.1502
4215.00,1.1501
4214.00,1.1501
4213.00,1.1501
4212.00,1.1501
4211.00,1.1501
4210.00,1.1501
4209.00,1.1500
4208.00,1.1500
4207.00,1.1500
4206.00,1.1501
4205.00,1.1501
4204.00,1.1502
4203.00,1.1502
4202.00,1.1502
4201.00,1.1502
4200.00,1.1502
4199.00,1.1502
4198.00,1.1502
4197.00,1.1502
4196.00,1.1502
4195.00,1.1502
4194.00,1.1502
4193.00,1.1502
4192.00,1.1502
4191.00,1.1503
4190.00,1.1503
4189.00,1.1502
4188.00,1.1502
4187.00,1.1502
4186.00,1.1502
4185.00,1.1502
4184.00,1.1502
4183.00,1.1501
4182.00,1.1501
4181.00,1.1501
4180.00,1.1501
4179.00,1.1501
4178.00,1.1501
4177.00,1.1501
4176.00,1.1501
4175.00,1.1501
4174.00,1.1501
4173.00,1.1501
4172.00,1.1501
4171.00,1.1501
4170.00,1.1501
4169.00,1.1501
4168.00,1.1501
4167.00,1.1501
4166.00,1.1501
4165.00,1.1500
4164.00,1.1500
4163.00,1.1500
4162.00,1.1501
4161.00,1.1500
4160.00,1.1500
4159.00,1.1500
4158.00,1.1500
4157.00,1.1500
4156.00,1.1500
4155.00,1.1500
4154.00,1.1500
4153.00,1.1499
4152.00,1.1499
4151.00,1.1499
4150.00,1.1499
4149.00,1.1499
4148.00,1.1499
4147.00,1.1499
4146.00,1.1499
4145.00,1.1498
4144.00,1.1498
4143.00,1.1498
4142.00,1.1497
4141.00,1.1497
4140.00,1.1497
4139.00,1.1498
4138.00,1.1498
4137.00,1.1498
4136.00,1.1498
4135.00,1.1498
4134.00,1.1497
4133.00,1.1497
4132.00,1.1497
4131.00,1.1497
4130.00,1.1496
4129.00,1.1496
4128.00,1.1496
4127.00,1.1496
4126.00,1.1496
4125.00,1.1496
4124.00,1.1496
4123.00,1.1496
4122.00,1.1495
4121.00,1.1495
4120.00,1.1495
4119.00,1.1495
4118.00,1.1495
4117.00,1.1495
4116.00,1.1494
4115.00,1.1494
4114.00,1.1494
4113.00,1.1494
4112.00,1.1494
4111.00,1.1495
4110.00,1.1495
4109.00,1.1495
4108.00,1.1495
4107.00,1.1495
4106.00,1.1494
4105.00,1.1494
4104.00,1.1493
4103.00,1.1493
4102.00,1.1493
4101.00,1.1493
4100.00,1.1493
4099.00,1.1493
4098.00,1.1493
4097.00,1.1493
4096.00,1.1492
4095.00,1.1492
4094.00,1.1492
4093.00,1.1492
4092.00,1.1492
4091.00,1.1493
4090.00,1.1493
4089.00,1.1493
4088.00,1.1492
4087.00,1.1492
4086.00,1.1492
4085.00,1.1492
4084.00,1.1492
4083.00,1.1492
4082.00,1.1492
4081.00,1.1492
4080.00,1.1492
4079.00,1.1492
4078.00,1.1492
4077.00,1.1491
4076.00,1.1491
4075.00,1.1491
4074.00,1.1491
4073.00,1.1492
4072.00,1.1492
4071.00,1.1492
4070.00,1.1491
4069.00,1.1491
4068.00,1.1491
4067.00,1.1491
4066.00,1.1491
4065.00,1.1490
4064.00,1.1490
4063.00,1.1489
4062.00,1.1489
4061.00,1.1489
4060.00,1.1489
4059.00,1.1488
4058.00,1.1488
4057.00,1.1488
4056.00,1.1488
4055.00,1.1488
4054.00,1.1488
4053.00,1.1487
4052.00,1.1487
4051.00,1.1487
4050.00,1.1487
4049.00,1.1487
4048.00,1.1487
4047.00,1.1488
4046.00,1.1488
4045.00,1.1487
4044.00,1.1487
4043.00,1.1486
4042.00,1.1486
4041.00,1.1485
4040.00,1.1485
4039.00,1.1484
4038.00,1.1484
4037.00,1.1484
4036.00,1.1484
4035.00,1.1484
4034.00,1.1484
4033.00,1.1484
4032.00,1.1483
4031.00,1.1484
4030.00,1.1484
4029.00,1.1484
4028.00,1.1484
4027.00,1.1483
4026.00,1.1483
4025.00,1.1483
4024.00,1.1483
4023.00,1.1483
4022.00,1.1482
4021.00,1.1482
4020.00,1.1482
4019.00,1.1482
4018.00,1.1482
4017.00,1.1482
4016.00,1.1481
4015.00,1.1481
4014.00,1.1481
4013.00,1.1481
4012.00,1.1480
4011.00,1.1481
4010.00,1.1480
4009.00,1.1480
4008.00,1.1480
4007.00,1.1479
4006.00,1.1478
4005.00,1.1478
4004.00,1.1477
4003.00,1.1478
4002.00,1.1478
4001.00,1.1478
4000.00,1.1478
3999.00,1.1478
3998.00,1.1477
3997.00,1.1477
3996.00,1.1476
3995.00,1.1476
3994.00,1.1476
3993.00,1.1476
3992.00,1.1476
3991.00,1.1475
3990.00,1.1475
3989.00,1.1474
3988.00,1.1474
3987.00,1.1474
3986.00,1.1474
3985.00,1.1474
3984.00,1.1474
3983.00,1.1474
3982.00,1.1473
3981.00,1.1473
3980.00,1.1473
3979.00,1.1472
3978.00,1.1472
3977.00,1.1471
3976.00,1.1471
3975.00,1.1471
3974.00,1.1471
3973.00,1.1471
3972.00,1.1470
3971.00,1.1470
3970.00,1.1469
3969.00,1.1469
3968.00,1.1468
3967.00,1.1468
3966.00,1.1467
3965.00,1.1467
3964.00,1.1467
3963.00,1.1466
3962.00,1.1465
3961.00,1.1465
3960.00,1.1464
3959.00,1.1464
3958.00,1.1463
3957.00,1.1463
3956.00,1.1462
3955.00,1.1462
3954.00,1.1462
3953.00,1.1462
3952.00,1.1462
3951.00,1.1461
3950.00,1.1461
3949.00,1.1460
3948.00,1.1459
3947.00,1.1459
3946.00,1.1459
3945.00,1.1458
3944.00,1.1457
3943.00,1.1457
3942.00,1.1456
3941.00,1.1455
3940.00,1.1454
3939.00,1.1453
3938.00,1.1452
3937.00,1.1451
3936.00,1.1451
3935.00,1.1450
3934.00,1.1450
3933.00,1.1449
3932.00,1.1449
3931.00,1.1448
3930.00,1.1448
3929.00,1.1448
3928.00,1.1448
3927.00,1.1448
3926.00,1.1447
3925.00,1.1446
3924.00,1.1445
3923.00,1.1444
3922.00,1.1443
3921.00,1.1441
3920.00,1.1440
3919.00,1.1439
3918.00,1.1438
3917.00,1.1437
3916.00,1.1437
3915.00,1.1437
3914.00,1.1436
3913.00,1.1436
3912.00,1.1435
3911.00,1.1435
3910.00,1.1435
3909.00,1.1435
3908.00,1.1435
3907.00,1.1435
3906.00,1.1434
3905.00,1.1433
3904.00,1.1430
3903.00,1.1429
3902.00,1.1427
3901.00,1.1425
3900.00,1.1424
3899.00,1.1424
3898.00,1.1426
3897.00,1.1426
3896.00,1.1426
3895.00,1.1426
3894.00,1.1426
3893.00,1.1425
3892.00,1.1424
3891.00,1.1423
3890.00,1.1421
3889.00,1.1420
3888.00,1.1417
3887.00,1.1415
3886.00,1.1414
3885.00,1.1416
3884.00,1.1418
3883.00,1.1419
3882.00,1.1418
3881.00,1.1416
3880.00,1.1415
3879.00,1.1415
3878.00,1.1414
3877.00,1.1413
3876.00,1.1412
3875.00,1.1411
3874.00,1.1411
3873.00,1.1411
3872.00,1.1410
3871.00,1.1407
3870.00,1.1405
3869.00,1.1405
3868.00,1.1407
3867.00,1.1407
3866.00,1.1405
3865.00,1.1405
3864.00,1.1404
3863.00,1.1403
3862.00,1.1401
3861.00,1.1400
3860.00,1.1398
3859.00,1.1397
3858.00,1.1396
3857.00,1.1395
3856.00,1.1396
3855.00,1.1396
3854.00,1.1394
3853.00,1.1392
3852.00,1.1392
3851.00,1.1391
3850.00,1.1390
3849.00,1.1390
3848.00,1.1390
3847.00,1.1390
3846.00,1.1391
3845.00,1.1391
3844.00,1.1390
3843.00,1.1390
3842.00,1.1389
3841.00,1.1388
3840.00,1.1387
3839.00,1.1387
3838.00,1.1387
3837.00,1.1387
3836.00,1.1386
3835.00,1.1385
3834.00,1.1384
3833.00,1.1383
3832.00,1.1382
3831.00,1.1382
3830.00,1.1382
3829.00,1.1382
3828.00,1.1380
3827.00,1.1379
3826.00,1.1379
3825.00,1.1379
3824.00,1.1379
3823.00,1.1378
3822.00,1.1375
3821.00,1.1373
3820.00,1.1373
3819.00,1.1373
3818.00,1.1371
3817.00,1.1369
3816.00,1.1369
3815.00,1.1371
3814.00,1.1373
3813.00,1.1372
3812.00,1.1370
3811.00,1.1370
3810.00,1.1370
3809.00,1.1369
3808.00,1.1368
3807.00,1.1367
3806.00,1.1366
3805.00,1.1365
3804.00,1.1363
3803.00,1.1361
3802.00,1.1361
3801.00,1.1364
3800.00,1.1367
3799.00,1.1367
3798.00,1.1365
3797.00,1.1363
3796.00,1.1362
3795.00,1.1363
3794.00,1.1363
3793.00,1.1362
3792.00,1.1362
3791.00,1.1363
3790.00,1.1362
3789.00,1.1362
3788.00,1.1362
3787.00,1.1361
3786.00,1.1360
3785.00,1.1359
3784.00,1.1359
3783.00,1.1359
3782.00,1.1359
3781.00,1.1357
3780.00,1.1356
3779.00,1.1355
3778.00,1.1355
3777.00,1.1355
3776.00,1.1354
3775.00,1.1353
3774.00,1.1354
3773.00,1.1354
3772.00,1.1352
3771.00,1.1351
3770.00,1.1349
3769.00,1.1349
3768.00,1.1349
3767.00,1.1348
3766.00,1.1347
3765.00,1.1347
3764.00,1.1347
3763.00,1.1347
3762.00,1.1346
3761.00,1.1345
3760.00,1.1344
3759.00,1.1344
3758.00,1.1343
3757.00,1.1341
3756.00,1.1339
3755.00,1.1336
3754.00,1.1334
3753.00,1.1332
3752.00,1.1331
3751.00,1.1330
3750.00,1.1328
3749.00,1.1327
3748.00,1.1327
3747.00,1.1326
3746.00,1.1325
3745.00,1.1325
3744.00,1.1327
3743.00,1.1330
3742.00,1.1330
3741.00,1.1327
3740.00,1.1325
3739.00,1.1325
3738.00,1.1325
3737.00,1.1326
3736.00,1.1326
3735.00,1.1327
3734.00,1.1327
3733.00,1.1326
3732.00,1.1326
3731.00,1.1327
3730.00,1.1328
3729.00,1.1329
3728.00,1.1328
3727.00,1.1329
3726.00,1.1330
3725.00,1.1331
3724.00,1.1331
3723.00,1.1330
3722.00,1.1330
3721.00,1.1330
3720.00,1.1330
3719.00,1.1330
3718.00,1.1329
3717.00,1.1329
3716.00,1.1329
3715.00,1.1329
3714.00,1.1328
3713.00,1.1327
3712.00,1.1327
3711.00,1.1326
3710.00,1.1326
3709.00,1.1326
3708.00,1.1327
3707.00,1.1328
3706.00,1.1329
3705.00,1.1330
3704.00,1.1332
3703.00,1.1332
3702.00,1.1333
3701.00,1.1335
3700.00,1.1336
3699.00,1.1337
3698.00,1.1338
3697.00,1.1338
3696.00,1.1338
3695.00,1.1339
3694.00,1.1339
3693.00,1.1339
3692.00,1.1338
3691.00,1.1338
3690.00,1.1337
3689.00,1.1337
3688.00,1.1338
3687.00,1.1340
3686.00,1.1343
3685.00,1.1345
3684.00,1.1347
3683.00,1.1349
3682.00,1.1352
3681.00,1.1353
3680.00,1.1353
3679.00,1.1354
3678.00,1.1355
3677.00,1.1355
3676.00,1.1354
3675.00,1.1356
3674.00,1.1359
3673.00,1.1362
3672.00,1.1363
3671.00,1.1364
3670.00,1.1367
3669.00,1.1371
3668.00,1.1375
3667.00,1.1377
3666.00,1.1380
3665.00,1.1382
3664.00,1.1385
3663.00,1.1387
3662.00,1.1390
3661.00,1.1392
3660.00,1.1394
3659.00,1.1395
3658.00,1.1397
3657.00,1.1398
3656.00,1.1400
3655.00,1.1403
3654.00,1.1405
3653.00,1.1405
3652.00,1.1405
3651.00,1.1405
3650.00,1.1408
3649.00,1.1410
3648.00,1.1412
3647.00,1.1415
3646.00,1.1419
3645.00,1.1423
3644.00,1.1426
3643.00,1.1428
3642.00,1.1431
3641.00,1.1434
3640.00,1.1437
3639.00,1.1438
3638.00,1.1440
3637.00,1.1441
3636.00,1.1442
3635.00,1.1442
3634.00,1.1442
3633.00,1.1443
3632.00,1.1444
3631.00,1.1444
3630.00,1.1443
3629.00,1.1443
3628.00,1.1446
3627.00,1.1449
3626.00,1.1451
3625.00,1.1453
3624.00,1.1455
3623.00,1.1458
3622.00,1.1461
3621.00,1.1464
3620.00,1.1466
3619.00,1.1468
3618.00,1.1469
3617.00,1.1471
3616.00,1.1471
3615.00,1.1472
3614.00,1.1472
3613.00,1.1472
3612.00,1.1472
3611.00,1.1472
3610.00,1.1472
3609.00,1.1473
3608.00,1.1475
3607.00,1.1478
3606.00,1.1481
3605.00,1.1483
3604.00,1.1485
3603.00,1.1487
3602.00,1.1488
3601.00,1.1489
3600.00,1.1490
3599.00,1.1491
3598.00,1.1492
3597.00,1.1493
3596.00,1.1494
3595.00,1.1494
3594.00,1.1494
3593.00,1.1495
3592.00,1.1495
3591.00,1.1495
3590.00,1.1496
3589.00,1.1496
3588.00,1.1496
3587.00,1.1496
3586.00,1.1498
3585.00,1.1499
3584.00,1.1500
3583.00,1.1502
3582.00,1.1504
3581.00,1.1505
3580.00,1.1506
3579.00,1.1508
3578.00,1.1509
3577.00,1.1510
3576.00,1.1510
3575.00,1.1511
3574.00,1.1511
3573.00,1.1511
3572.00,1.1511
3571.00,1.1512
3570.00,1.1512
3569.00,1.1512
3568.00,1.1512
3567.00,1.1513
3566.00,1.1515
3565.00,1.1516
3564.00,1.1517
3563.00,1.1517
3562.00,1.1518
3561.00,1.1519
3560.00,1.1520
3559.00,1.1521
3558.00,1.1522
3557.00,1.1523
3556.00,1.1524
3555.00,1.1524
3554.00,1.1525
3553.00,1.1526
3552.00,1.1526
3551.00,1.1527
3550.00,1.1527
3549.00,1.1527
3548.00,1.1527
3547.00,1.1527
3546.00,1.1527
3545.00,1.1528
3544.00,1.1529
3543.00,1.1531
3542.00,1.1532
3541.00,1.1534
3540.00,1.1536
3539.00,1.1537
3538.00,1.1538
3537.00,1.1539
3536.00,1.1539
3535.00,1.1540
3534.00,1.1541
3533.00,1.1542
3532.00,1.1544
3531.00,1.1545
3530.00,1.1547
3529.00,1.1548
3528.00,1.1549
3527.00,1.1550
3526.00,1.1550
3525.00,1.1550
3524.00,1.1551
3523.00,1.1553
3522.00,1.1555
3521.00,1.1557
3520.00,1.1559
3519.00,1.1561
3518.00,1.1563
3517.00,1.1564
3516.00,1.1565
3515.00,1.1566
3514.00,1.1568
3513.00,1.1570
3512.00,1.1572
3511.00,1.1574
3510.00,1.1576
3509.00,1.1577
3508.00,1.1579
3507.00,1.1581
3506.00,1.1583
3505.00,1.1585
3504.00,1.1586
3503.00,1.1588
3502.00,1.1590
3501.00,1.1591
3500.00,1.1594
3499.00,1.1596
3498.00,1.1599
3497.00,1.1601
3496.00,1.1604
3495.00,1.1607
3494.00,1.1609
3493.00,1.1611
3492.00,1.1614
3491.00,1.1616
3490.00,1.1619
3489.00,1.1621
3488.00,1.1623
3487.00,1.1625
3486.00,1.1628
3485.00,1.1631
3484.00,1.1634
3483.00,1.1636
3482.00,1.1638
3481.00,1.1640
3480.00,1.1643
3479.00,1.1645
3478.00,1.1648
3477.00,1.1652
3476.00,1.1655
3475.00,1.1659
3474.00,1.1662
3473.00,1.1664
3472.00,1.1667
3471.00,1.1669
3470.00,1.1670
3469.00,1.1672
3468.00,1.1674
3467.00,1.1678
3466.00,1.1682
3465.00,1.1686
3464.00,1.1690
3463.00,1.1694
3462.00,1.1697
3461.00,1.1701
3460.00,1.1704
3459.00,1.1707
3458.00,1.1710
3457.00,1.1713
3456.00,1.1717
3455.00,1.1720
3454.00,1.1724
3453.00,1.1727
3452.00,1.1731
3451.00,1.1734
3450.00,1.1737
3449.00,1.1741
3448.00,1.1744
3447.00,1.1747
3446.00,1.1751
3445.00,1.1755
3444.00,1.1758
3443.00,1.1762
3442.00,1.1765
3441.00,1.1768
3440.00,1.1771
3439.00,1.1774
3438.00,1.1776
3437.00,1.1779
3436.00,1.1781
3435.00,1.1784
3434.00,1.1788
3433.00,1.1792
3432.00,1.1796
3431.00,1.1800
3430.00,1.1803
3429.00,1.1807
3428.00,1.1810
3427.00,1.1813
3426.00,1.1816
3425.00,1.1820
3424.00,1.1823
3423.00,1.1826
3422.00,1.1828
3421.00,1.1831
3420.00,1.1833
3419.00,1.1836
3418.00,1.1839
3417.00,1.1841
3416.00,1.1843
3415.00,1.1845
3414.00,1.1847
3413.00,1.1849
3412.00,1.1851
3411.00,1.1852
3410.00,1.1854
3409.00,1.1856
3408.00,1.1859
3407.00,1.1861
3406.00,1.1863
3405.00,1.1865
3404.00,1.1866
3403.00,1.1867
3402.00,1.1868
3401.00,1.1868
3400.00,1.1870
3399.00,1.1872
3398.00,1.1875
3397.00,1.1878
3396.00,1.1880
3395.00,1.1882
3394.00,1.1883
3393.00,1.1883
3392.00,1.1884
3391.00,1.1885
3390.00,1.1887
3389.00,1.1889
3388.00,1.1892
3387.00,1.1894
3386.00,1.1895
3385.00,1.1896
3384.00,1.1897
3383.00,1.1898
3382.00,1.1899
3381.00,1.1900
3380.00,1.1901
3379.00,1.1902
3378.00,1.1903
3377.00,1.1903
3376.00,1.1904
3375.00,1.1905
3374.00,1.1906
3373.00,1.1907
3372.00,1.1907
3371.00,1.1907
3370.00,1.1906
3369.00,1.1906
3368.00,1.1907
3367.00,1.1909
3366.00,1.1911
3365.00,1.1912
3364.00,1.1914
3363.00,1.1915
3362.00,1.1916
3361.00,1.1916
3360.00,1.1917
3359.00,1.1917
3358.00,1.1918
3357.00,1.1919
3356.00,1.1919
3355.00,1.1920
3354.00,1.1921
3353.00,1.1921
3352.00,1.1920
3351.00,1.1920
3350.00,1.1920
3349.00,1.1921
3348.00,1.1922
3347.00,1.1923
3346.00,1.1924
3345.00,1.1925
3344.00,1.1925
3343.00,1.1925
3342.00,1.1925
3341.00,1.1926
3340.00,1.1926
3339.00,1.1926
3338.00,1.1927
3337.00,1.1928
3336.00,1.1929
3335.00,1.1930
3334.00,1.1931
3333.00,1.1932
3332.00,1.1932
3331.00,1.1933
3330.00,1.1933
3329.00,1.1934
3328.00,1.1935
3327.00,1.1935
3326.00,1.1935
3325.00,1.1936
3324.00,1.1937
3323.00,1.1938
3322.00,1.1940
3321.00,1.1941
3320.00,1.1942
3319.00,1.1943
3318.00,1.1943
3317.00,1.1944
3316.00,1.1944
3315.00,1.1945
3314.00,1.1945
3313.00,1.1946
3312.00,1.1947
3311.00,1.1947
3310.00,1.1947
3309.00,1.1946
3308.00,1.1946
3307.00,1.1945
3306.00,1.1946
3305.00,1.1947
3304.00,1.1949
3303.00,1.1951
3302.00,1.1954
3301.00,1.1955
3300.00,1.1957
3299.00,1.1957
3298.00,1.1958
3297.00,1.1958
3296.00,1.1959
3295.00,1.1959
3294.00,1.1960
3293.00,1.1961
3292.00,1.1961
3291.00,1.1962
3290.00,1.1964
3289.00,1.1965
3288.00,1.1966
3287.00,1.1967
3286.00,1.1969
3285.00,1.1970
3284.00,1.1971
3283.00,1.1972
3282.00,1.1973
3281.00,1.1974
3280.00,1.1975
3279.00,1.1976
3278.00,1.1977
3277.00,1.1978
3276.00,1.1978
3275.00,1.1978
3274.00,1.1979
3273.00,1.1979
3272.00,1.1979
3271.00,1.1980
3270.00,1.1981
3269.00,1.1982
3268.00,1.1984
3267.00,1.1986
3266.00,1.1987
3265.00,1.1988
3264.00,1.1989
3263.00,1.1990
3262.00,1.1991
3261.00,1.1992
3260.00,1.1993
3259.00,1.1994
3258.00,1.1995
3257.00,1.1996
3256.00,1.1997
3255.00,1.1998
3254.00,1.1999
3253.00,1.2001
3252.00,1.2002
3251.00,1.2003
3250.00,1.2004
3249.00,1.2004
3248.00,1.2005
3247.00,1.2006
3246.00,1.2007
3245.00,1.2009
3244.00,1.2011
3243.00,1.2012
3242.00,1.2013
3241.00,1.2014
3240.00,1.2015
3239.00,1.2015
3238.00,1.2016
3237.00,1.2017
3236.00,1.2017
3235.00,1.2018
3234.00,1.2018
3233.00,1.2018
3232.00,1.2019
3231.00,1.2021
3230.00,1.2022
3229.00,1.2024
3228.00,1.2024
3227.00,1.2025
3226.00,1.2025
3225.00,1.2026
3224.00,1.2026
3223.00,1.2026
3222.00,1.2027
3221.00,1.2028
3220.00,1.2028
3219.00,1.2028
3218.00,1.2029
3217.00,1.2029
3216.00,1.2029
3215.00,1.2029
3214.00,1.2029
3213.00,1.2029
3212.00,1.2030
3211.00,1.2031
3210.00,1.2031
3209.00,1.2031
3208.00,1.2030
3207.00,1.2030
3206.00,1.2030
3205.00,1.2030
3204.00,1.2030
3203.00,1.2030
3202.00,1.2030
3201.00,1.2030
3200.00,1.2030
3199.00,1.2030
3198.00,1.2030
3197.00,1.2030
3196.00,1.2030
3195.00,1.2030
3194.00,1.2030
3193.00,1.2031
3192.00,1.2031
3191.00,1.2031
3190.00,1.2030
3189.00,1.2030
3188.00,1.2030
3187.00,1.2029
3186.00,1.2029
3185.00,1.2030
3184.00,1.2030
3183.00,1.2030
3182.00,1.2030
3181.00,1.2030
3180.00,1.2030
3179.00,1.2030
3178.00,1.2030
3177.00,1.2030
3176.00,1.2030
3175.00,1.2030
3174.00,1.2030
3173.00,1.2031
3172.00,1.2031
3171.00,1.2032
3170.00,1.2032
3169.00,1.2032
3168.00,1.2032
3167.00,1.2032
3166.00,1.2032
3165.00,1.2032
3164.00,1.2033
3163.00,1.2033
3162.00,1.2033
3161.00,1.2034
3160.00,1.2034
3159.00,1.2034
3158.00,1.2035
3157.00,1.2035
3156.00,1.2035
3155.00,1.2035
3154.00,1.2035
3153.00,1.2034
3152.00,1.2034
3151.00,1.2035
3150.00,1.2035
3149.00,1.2037
3148.00,1.2038
3147.00,1.2038
3146.00,1.2039
3145.00,1.2039
3144.00,1.2039
3143.00,1.2040
3142.00,1.2040
3141.00,1.2040
3140.00,1.2040
3139.00,1.2040
3138.00,1.2040
3137.00,1.2041
3136.00,1.2042
3135.00,1.2043
3134.00,1.2043
3133.00,1.2044
3132.00,1.2044
3131.00,1.2044
3130.00,1.2044
3129.00,1.2045
3128.00,1.2045
3127.00,1.2046
3126.00,1.2046
3125.00,1.2047
3124.00,1.2047
3123.00,1.2046
3122.00,1.2045
3121.00,1.2044
3120.00,1.2044
3119.00,1.2043
3118.00,1.2044
3117.00,1.2044
3116.00,1.2044
3115.00,1.2045
3114.00,1.2045
3113.00,1.2046
3112.00,1.2047
3111.00,1.2047
3110.00,1.2047
3109.00,1.2047
3108.00,1.2047
3107.00,1.2047
3106.00,1.2047
3105.00,1.2047
3104.00,1.2047
3103.00,1.2047
3102.00,1.2047
3101.00,1.2047
3100.00,1.2047
3099.00,1.2046
3098.00,1.2046
3097.00,1.2046
3096.00,1.2045
3095.00,1.2045
3094.00,1.2044
3093.00,1.2044
3092.00,1.2043
3091.00,1.2042
3090.00,1.2042
3089.00,1.2042
3088.00,1.2041
3087.00,1.2041
3086.00,1.2040
3085.00,1.2038
3084.00,1.2038
3083.00,1.2037
3082.00,1.2036
3081.00,1.2035
3080.00,1.2034
3079.00,1.2033
3078.00,1.2033
3077.00,1.2033
3076.00,1.2033
3075.00,1.2034
3074.00,1.2034
3073.00,1.2034
3072.00,1.2034
3071.00,1.2033
3070.00,1.2032
3069.00,1.2031
3068.00,1.2029
3067.00,1.2028
3066.00,1.2028
3065.00,1.2028
3064.00,1.2028
3063.00,1.2028
3062.00,1.2028
3061.00,1.2027
3060.00,1.2027
3059.00,1.2026
3058.00,1.2026
3057.00,1.2025
3056.00,1.2024
3055.00,1.2023
3054.00,1.2022
3053.00,1.2022
3052.00,1.2021
3051.00,1.2021
3050.00,1.2020
3049.00,1.2020
3048.00,1.2019
3047.00,1.2019
3046.00,1.2018
3045.00,1.2017
3044.00,1.2016
3043.00,1.2015
3042.00,1.2014
3041.00,1.2014
3040.00,1.2014
3039.00,1.2014
3038.00,1.2014
3037.00,1.2014
3036.00,1.2013
3035.00,1.2012
3034.00,1.2011
3033.00,1.2010
3032.00,1.2010
3031.00,1.2010
3030.00,1.2009
3029.00,1.2008
3028.00,1.2008
3027.00,1.2007
3026.00,1.2006
3025.00,1.2006
3024.00,1.2005
3023.00,1.2005
3022.00,1.2004
3021.00,1.2004
3020.00,1.2003
3019.00,1.2002
3018.00,1.2001
3017.00,1.2000
3016.00,1.2000
3015.00,1.2000
3014.00,1.2000
3013.00,1.2000
3012.00,1.2001
3011.00,1.2001
3010.00,1.2000
3009.00,1.2000
3008.00,1.1999
3007.00,1.1999
3006.00,1.1998
3005.00,1.1997
3004.00,1.1997
3003.00,1.1996
3002.00,1.1995
3001.00,1.1995
3000.00,1.1994
2999.00,1.1993
2998.00,1.1992
2997.00,1.1991
2996.00,1.1991
2995.00,1.1990
2994.00,1.1989
2993.00,1.1988
2992.00,1.1988
2991.00,1.1987
2990.00,1.1987
2989.00,1.1986
2988.00,1.1986
2987.00,1.1985
2986.00,1.1985
2985.00,1.1984
2984.00,1.1983
2983.00,1.1982
2982.00,1.1981
2981.00,1.1980
2980.00,1.1980
2979.00,1.1979
2978.00,1.1979
2977.00,1.1978
2976.00,1.1977
2975.00,1.1976
2974.00,1.1975
2973.00,1.1974
2972.00,1.1974
2971.00,1.1973
2970.00,1.1972
2969.00,1.1972
2968.00,1.1971
2967.00,1.1971
2966.00,1.1971
2965.00,1.1971
2964.00,1.1971
2963.00,1.1971
2962.00,1.1971
2961.00,1.1971
2960.00,1.1971
2959.00,1.1971
2958.00,1.1971
2957.00,1.1970
2956.00,1.1969
2955.00,1.1968
2954.00,1.1967
2953.00,1.1966
2952.00,1.1965
2951.00,1.1963
2950.00,1.1962
2949.00,1.1960
2948.00,1.1959
2947.00,1.1957
2946.00,1.1955
2945.00,1.1954
2944.00,1.1952
2943.00,1.1951
2942.00,1.1950
2941.00,1.1950
2940.00,1.1949
2939.00,1.1949
2938.00,1.1948
2937.00,1.1948
2936.00,1.1948
2935.00,1.1947
2934.00,1.1947
2933.00,1.1946
2932.00,1.1946
2931.00,1.1945
2930.00,1.1944
2929.00,1.1944
2928.00,1.1945
2927.00,1.1945
2926.00,1.1946
2925.00,1.1948
2924.00,1.1949
2923.00,1.1951
2922.00,1.1952
2921.00,1.1953
2920.00,1.1954
2919.00,1.1954
2918.00,1.1953
2917.00,1.1953
2916.00,1.1951
2915.00,1.1950
2914.00,1.1948
2913.00,1.1946
2912.00,1.1944
2911.00,1.1942
2910.00,1.1941
2909.00,1.1940
2908.00,1.1938
2907.00,1.1937
2906.00,1.1936
2905.00,1.1935
2904.00,1.1934
2903.00,1.1933
2902.00,1.1932
2901.00,1.1931
2900.00,1.1930
2899.00,1.1929
2898.00,1.1928
2897.00,1.1926
2896.00,1.1925
2895.00,1.1924
2894.00,1.1924
2893.00,1.1923
2892.00,1.1922
2891.00,1.1921
2890.00,1.1920
2889.00,1.1920
2888.00,1.1919
2887.00,1.1918
2886.00,1.1916
2885.00,1.1915
2884.00,1.1914
2883.00,1.1912
2882.00,1.1911
2881.00,1.1910
2880.00,1.1909
2879.00,1.1907
2878.00,1.1906
2877.00,1.1905
2876.00,1.1904
2875.00,1.1902
2874.00,1.1900
2873.00,1.1899
2872.00,1.1898
2871.00,1.1897
2870.00,1.1895
2869.00,1.1894
2868.00,1.1893
2867.00,1.1892
2866.00,1.1891
2865.00,1.1890
2864.00,1.1890
2863.00,1.1890
2862.00,1.1890
2861.00,1.1891
2860.00,1.1892
2859.00,1.1892
2858.00,1.1893
2857.00,1.1894
2856.00,1.1894
2855.00,1.1893
2854.00,1.1893
2853.00,1.1893
2852.00,1.1893
2851.00,1.1893
2850.00,1.1894
2849.00,1.1894
2848.00,1.1894
2847.00,1.1893
2846.00,1.1892
2845.00,1.1891
2844.00,1.1889
2843.00,1.1888
2842.00,1.1886
2841.00,1.1885
2840.00,1.1883
2839.00,1.1882
2838.00,1.1881
2837.00,1.1880
2836.00,1.1879
2835.00,1.1879
2834.00,1.1878
2833.00,1.1878
2832.00,1.1877
2831.00,1.1876
2830.00,1.1875
2829.00,1.1874
2828.00,1.1874
2827.00,1.1873
2826.00,1.1873
2825.00,1.1872
2824.00,1.1872
2823.00,1.1871
2822.00,1.1870
2821.00,1.1870
2820.00,1.1869
2819.00,1.1868
2818.00,1.1868
2817.00,1.1867
2816.00,1.1866
2815.00,1.1866
2814.00,1.1865
2813.00,1.1864
2812.00,1.1864
2811.00,1.1863
2810.00,1.1862
2809.00,1.1862
2808.00,1.1861
2807.00,1.1861
2806.00,1.1860
2805.00,1.1859
2804.00,1.1859
2803.00,1.1858
2802.00,1.1857
2801.00,1.1857
2800.00,1.1856
2799.00,1.1856
2798.00,1.1855
2797.00,1.1855
2796.00,1.1854
2795.00,1.1854
2794.00,1.1854
2793.00,1.1854
2792.00,1.1853
2791.00,1.1853
2790.00,1.1852
2789.00,1.1852
2788.00,1.1851
2787.00,1.1851
2786.00,1.1850
2785.00,1.1850
2784.00,1.1850
2783.00,1.1850
2782.00,1.1850
2781.00,1.1849
2780.00,1.1849
2779.00,1.1848
2778.00,1.1847
2777.00,1.1846
2776.00,1.1846
2775.00,1.1846
2774.00,1.1846
2773.00,1.1846
2772.00,1.1845
2771.00,1.1845
2770.00,1.1844
2769.00,1.1843
2768.00,1.1843
2767.00,1.1843
2766.00,1.1842
2765.00,1.1842
2764.00,1.1842
2763.00,1.1842
2762.00,1.1842
2761.00,1.1841
2760.00,1.1841
2759.00,1.1841
2758.00,1.1840
2757.00,1.1840
2756.00,1.1840
2755.00,1.1840
2754.00,1.1840
2753.00,1.1840
2752.00,1.1839
2751.00,1.1839
2750.00,1.1838
2749.00,1.1838
2748.00,1.1838
2747.00,1.1838
2746.00,1.1838
2745.00,1.1838
2744.00,1.1838
2743.00,1.1837
2742.00,1.1837
2741.00,1.1837
2740.00,1.1837
2739.00,1.1837
2738.00,1.1837
2737.00,1.1836
2736.00,1.1836
2735.00,1.1836
2734.00,1.1836
2733.00,1.1836
2732.00,1.1836
2731.00,1.1835
2730.00,1.1835
2729.00,1.1834
2728.00,1.1834
2727.00,1.1834
2726.00,1.1833
2725.00,1.1833
2724.00,1.1833
2723.00,1.1833
2722.00,1.1833
2721.00,1.1832
2720.00,1.1832
2719.00,1.1832
2718.00,1.1832
2717.00,1.1832
2716.00,1.1832
2715.00,1.1832
2714.00,1.1832
2713.00,1.1832
2712.00,1.1832
2711.00,1.1831
2710.00,1.1831
2709.00,1.1831
2708.00,1.1831
2707.00,1.1831
2706.00,1.1830
2705.00,1.1830
2704.00,1.1830
2703.00,1.1830
2702.00,1.1830
2701.00,1.1830
2700.00,1.1830
2699.00,1.1830
2698.00,1.1830
2697.00,1.1830
2696.00,1.1830
2695.00,1.1830
2694.00,1.1830
2693.00,1.1829
2692.00,1.1829
2691.00,1.1829
2690.00,1.1829
2689.00,1.1830
2688.00,1.1830
2687.00,1.1830
2686.00,1.1830
2685.00,1.1830
2684.00,1.1830
2683.00,1.1830
2682.00,1.1830
2681.00,1.1830
2680.00,1.1830
2679.00,1.1830
2678.00,1.1830
2677.00,1.1830
2676.00,1.1830
2675.00,1.1830
2674.00,1.1830
2673.00,1.1830
2672.00,1.1830
2671.00,1.1831
2670.00,1.1831
2669.00,1.1831
2668.00,1.1831
2667.00,1.1831
2666.00,1.1831
2665.00,1.1831
2664.00,1.1831
2663.00,1.1831
2662.00,1.1831
2661.00,1.1832
2660.00,1.1832
2659.00,1.1832
2658.00,1.1832
2657.00,1.1832
2656.00,1.1833
2655.00,1.1833
2654.00,1.1833
2653.00,1.1833
2652.00,1.1833
2651.00,1.1834
2650.00,1.1834
2649.00,1.1834
2648.00,1.1834
2647.00,1.1834
2646.00,1.1834
2645.00,1.1835
2644.00,1.1835
2643.00,1.1835
2642.00,1.1835
2641.00,1.1835
2640.00,1.1836
2639.00,1.1836
2638.00,1.1835
2637.00,1.1835
2636.00,1.1835
2635.00,1.1836
2634.00,1.1836
2633.00,1.1836
2632.00,1.1836
2631.00,1.1836
2630.00,1.1836
2629.00,1.1837
2628.00,1.1837
2627.00,1.1837
2626.00,1.1837
2625.00,1.1838
2624.00,1.1838
2623.00,1.1838
2622.00,1.1838
2621.00,1.1839
2620.00,1.1839
2619.00,1.1839
2618.00,1.1839
2617.00,1.1839
2616.00,1.1839
2615.00,1.1839
2614.00,1.1839
2613.00,1.1840
2612.00,1.1840
2611.00,1.1839
2610.00,1.1839
2609.00,1.1840
2608.00,1.1840
2607.00,1.1841
2606.00,1.1841
2605.00,1.1841
2604.00,1.1842
2603.00,1.1842
2602.00,1.1842
2601.00,1.1842
2600.00,1.1842
2599.00,1.1843
2598.00,1.1843
2597.00,1.1843
2596.00,1.1843
2595.00,1.1843
2594.00,1.1843
2593.00,1.1844
2592.00,1.1844
2591.00,1.1844
2590.00,1.1845
2589.00,1.1845
2588.00,1.1845
2587.00,1.1846
2586.00,1.1846
2585.00,1.1846
2584.00,1.1847
2583.00,1.1847
2582.00,1.1847
2581.00,1.1848
2580.00,1.1848
2579.00,1.1848
2578.00,1.1848
2577.00,1.1848
2576.00,1.1849
2575.00,1.1849
2574.00,1.1849
2573.00,1.1849
2572.00,1.1849
2571.00,1.1849
2570.00,1.1850
2569.00,1.1850
2568.00,1.1850
2567.00,1.1850
2566.00,1.1850
2565.00,1.1851
2564.00,1.1851
2563.00,1.1852
2562.00,1.1852
2561.00,1.1853
2560.00,1.1853
2559.00,1.1853
2558.00,1.1853
2557.00,1.1854
2556.00,1.1854
2555.00,1.1854
2554.00,1.1855
2553.00,1.1855
2552.00,1.1855
2551.00,1.1856
2550.00,1.1856
2549.00,1.1856
2548.00,1.1857
2547.00,1.1857
2546.00,1.1857
2545.00,1.1858
2544.00,1.1858
2543.00,1.1858
2542.00,1.1858
2541.00,1.1858
2540.00,1.1859
2539.00,1.1859
2538.00,1.1859
2537.00,1.1859
2536.00,1.1860
2535.00,1.1860
2534.00,1.1860
2533.00,1.1860
2532.00,1.1861
2531.00,1.1861
2530.00,1.1862
2529.00,1.1863
2528.00,1.1863
2527.00,1.1863
2526.00,1.1863
2525.00,1.1863
2524.00,1.1864
2523.00,1.1864
2522.00,1.1864
2521.00,1.1865
2520.00,1.1865
2519.00,1.1865
2518.00,1.1865
2517.00,1.1866
2516.00,1.1866
2515.00,1.1866
2514.00,1.1867
2513.00,1.1867
2512.00,1.1868
2511.00,1.1868
2510.00,1.1868
2509.00,1.1869
2508.00,1.1869
2507.00,1.1869
2506.00,1.1869
2505.00,1.1870
2504.00,1.1870
2503.00,1.1870
2502.00,1.1871
2501.00,1.1871
2500.00,1.1872
2499.00,1.1872
2498.00,1.1872
2497.00,1.1872
2496.00,1.1872
2495.00,1.1872
2494.00,1.1873
2493.00,1.1873
2492.00,1.1874
2491.00,1.1874
2490.00,1.1874
2489.00,1.1875
2488.00,1.1875
2487.00,1.1876
2486.00,1.1876
2485.00,1.1876
2484.00,1.1876
2483.00,1.1876
2482.00,1.1877
2481.00,1.1877
2480.00,1.1878
2479.00,1.1878
2478.00,1.1878
2477.00,1.1879
2476.00,1.1879
2475.00,1.1879
2474.00,1.1880
2473.00,1.1880
2472.00,1.1880
2471.00,1.1881
2470.00,1.1881
2469.00,1.1882
2468.00,1.1882
2467.00,1.1882
2466.00,1.1882
2465.00,1.1882
2464.00,1.1882
2463.00,1.1883
2462.00,1.1883
2461.00,1.1883
2460.00,1.1884
2459.00,1.1884
2458.00,1.1884
2457.00,1.1884
2456.00,1.1884
2455.00,1.1884
2454.00,1.1884
2453.00,1.1885
2452.00,1.1885
2451.00,1.1885
2450.00,1.1885
2449.00,1.1885
2448.00,1.1886
2447.00,1.1886
2446.00,1.1886
2445.00,1.1886
2444.00,1.1886
2443.00,1.1886
2442.00,1.1886
2441.00,1.1886
2440.00,1.1886
2439.00,1.1886
2438.00,1.1886
2437.00,1.1886
2436.00,1.1886
2435.00,1.1886
2434.00,1.1886
2433.00,1.1886
2432.00,1.1886
2431.00,1.1886
2430.00,1.1886
2429.00,1.1886
2428.00,1.1886
2427.00,1.1886
2426.00,1.1886
2425.00,1.1886
2424.00,1.1886
2423.00,1.1886
2422.00,1.1885
2421.00,1.1885
2420.00,1.1885
2419.00,1.1884
2418.00,1.1884
2417.00,1.1884
2416.00,1.1884
2415.00,1.1883
2414.00,1.1883
2413.00,1.1882
2412.00,1.1882
2411.00,1.1881
2410.00,1.1881
2409.00,1.1881
2408.00,1.1880
2407.00,1.1880
2406.00,1.1879
2405.00,1.1879
2404.00,1.1879
2403.00,1.1879
2402.00,1.1879
2401.00,1.1879
2400.00,1.1878
2399.00,1.1878
2398.00,1.1878
2397.00,1.1877
2396.00,1.1877
2395.00,1.1877
2394.00,1.1876
2393.00,1.1877
2392.00,1.1877
2391.00,1.1877
2390.00,1.1877
2389.00,1.1877
2388.00,1.1877
2387.00,1.1877
2386.00,1.1877
2385.00,1.1877
2384.00,1.1878
2383.00,1.1878
2382.00,1.1878
2381.00,1.1878
2380.00,1.1879
2379.00,1.1879
2378.00,1.1879
2377.00,1.1880
2376.00,1.1880
2375.00,1.1880
2374.00,1.1880
2373.00,1.1879
2372.00,1.1879
2371.00,1.1879
2370.00,1.1878
2369.00,1.1878
2368.00,1.1879
2367.00,1.1878
2366.00,1.1878
2365.00,1.1878
2364.00,1.1879
2363.00,1.1879
2362.00,1.1879
2361.00,1.1879
2360.00,1.1879
2359.00,1.1879
2358.00,1.1879
2357.00,1.1879
2356.00,1.1880
2355.00,1.1880
2354.00,1.1881
2353.00,1.1881
2352.00,1.1881
2351.00,1.1880
2350.00,1.1879
2349.00,1.1877
2348.00,1.1874
2347.00,1.1872
2346.00,1.1871
2345.00,1.1874
2344.00,1.1878
2343.00,1.1881
2342.00,1.1885
2341.00,1.1888
2340.00,1.1890
2339.00,1.1890
2338.00,1.1889
2337.00,1.1888
2336.00,1.1887
2335.00,1.1886
2334.00,1.1886
2333.00,1.1886
2332.00,1.1885
2331.00,1.1886
2330.00,1.1886
2329.00,1.1886
2328.00,1.1887
2327.00,1.1887
2326.00,1.1886
2325.00,1.1886
2324.00,1.1887
2323.00,1.1887
2322.00,1.1887
2321.00,1.1888
2320.00,1.1888
2319.00,1.1888
2318.00,1.1887
2317.00,1.1888
2316.00,1.1888
2315.00,1.1888
2314.00,1.1888
2313.00,1.1888
2312.00,1.1888
2311.00,1.1888
2310.00,1.1888
2309.00,1.1888
2308.00,1.1888
2307.00,1.1889
2306.00,1.1889
2305.00,1.1889
2304.00,1.1889
2303.00,1.1889
2302.00,1.1889
2301.00,1.1890
2300.00,1.1890
2299.00,1.1890
2298.00,1.1890
2297.00,1.1890
2296.00,1.1890
2295.00,1.1890
2294.00,1.1890
2293.00,1.1890
2292.00,1.1891
2291.00,1.1891
2290.00,1.1891
2289.00,1.1891
2288.00,1.1892
2287.00,1.1893
2286.00,1.1893
2285.00,1.1894
2284.00,1.1894
2283.00,1.1894
2282.00,1.1894
2281.00,1.1894
2280.00,1.1894
2279.00,1.1894
2278.00,1.1894
2277.00,1.1895
2276.00,1.1895
2275.00,1.1895
2274.00,1.1896
2273.00,1.1896
2272.00,1.1896
2271.00,1.1897
2270.00,1.1897
2269.00,1.1897
2268.00,1.1897
2267.00,1.1898
2266.00,1.1898
2265.00,1.1898
2264.00,1.1898
2263.00,1.1898
2262.00,1.1898
2261.00,1.1898
2260.00,1.1899
2259.00,1.1899
2258.00,1.1899
2257.00,1.1899
2256.00,1.1899
2255.00,1.1899
2254.00,1.1899
2253.00,1.1899
2252.00,1.1900
2251.00,1.1900
2250.00,1.1900
2249.00,1.1900
2248.00,1.1901
2247.00,1.1901
2246.00,1.1901
2245.00,1.1901
2244.00,1.1901
2243.00,1.1901
2242.00,1.1901
2241.00,1.1901
2240.00,1.1901
2239.00,1.1901
2238.00,1.1901
2237.00,1.1901
2236.00,1.1901
2235.00,1.1901
2234.00,1.1901
2233.00,1.1901
2232.00,1.1902
2231.00,1.1902
2230.00,1.1902
2229.00,1.1902
2228.00,1.1902
2227.00,1.1902
2226.00,1.1902
2225.00,1.1902
2224.00,1.1903
2223.00,1.1903
2222.00,1.1902
2221.00,1.1902
2220.00,1.1902
2219.00,1.1902
2218.00,1.1902
2217.00,1.1902
2216.00,1.1902
2215.00,1.1902
2214.00,1.1901
2213.00,1.1902
2212.00,1.1902
2211.00,1.1901
2210.00,1.1901
2209.00,1.1901
2208.00,1.1901
2207.00,1.1901
2206.00,1.1901
2205.00,1.1901
2204.00,1.1901
2203.00,1.1901
2202.00,1.1901
2201.00,1.1900
2200.00,1.1900
2199.00,1.1900
2198.00,1.1900
2197.00,1.1900
2196.00,1.1899
2195.00,1.1899
2194.00,1.1899
2193.00,1.1899
2192.00,1.1899
2191.00,1.1899
2190.00,1.1899
2189.00,1.1899
2188.00,1.1899
2187.00,1.1899
2186.00,1.1899
2185.00,1.1899
2184.00,1.1898
2183.00,1.1898
2182.00,1.1897
2181.00,1.1897
2180.00,1.1897
2179.00,1.1897
2178.00,1.1897
2177.00,1.1896
2176.00,1.1896
2175.00,1.1895
2174.00,1.1895
2173.00,1.1895
2172.00,1.1895
2171.00,1.1894
2170.00,1.1894
2169.00,1.1894
2168.00,1.1893
2167.00,1.1893
2166.00,1.1892
2165.00,1.1892
2164.00,1.1892
2163.00,1.1892
2162.00,1.1891
2161.00,1.1891
2160.00,1.1891
2159.00,1.1890
2158.00,1.1889
2157.00,1.1889
2156.00,1.1889
2155.00,1.1888
2154.00,1.1888
2153.00,1.1888
2152.00,1.1887
2151.00,1.1887
2150.00,1.1886
2149.00,1.1886
2148.00,1.1886
2147.00,1.1885
2146.00,1.1884
2145.00,1.1884
2144.00,1.1883
2143.00,1.1883
2142.00,1.1882
2141.00,1.1882
2140.00,1.1882
2139.00,1.1881
2138.00,1.1881
2137.00,1.1880
2136.00,1.1880
2135.00,1.1880
2134.00,1.1879
2133.00,1.1878
2132.00,1.1878
2131.00,1.1877
2130.00,1.1876
2129.00,1.1876
2128.00,1.1876
2127.00,1.1876
2126.00,1.1875
2125.00,1.1875
2124.00,1.1874
2123.00,1.1873
2122.00,1.1873
2121.00,1.1872
2120.00,1.1872
2119.00,1.1872
2118.00,1.1871
2117.00,1.1870
2116.00,1.1870
2115.00,1.1869
2114.00,1.1869
2113.00,1.1868
2112.00,1.1868
2111.00,1.1867
2110.00,1.1866
2109.00,1.1866
2108.00,1.1865
2107.00,1.1865
2106.00,1.1864
2105.00,1.1864
2104.00,1.1863
2103.00,1.1862
2102.00,1.1862
2101.00,1.1862
2100.00,1.1861
2099.00,1.1861
2098.00,1.1860
2097.00,1.1860
2096.00,1.1859
2095.00,1.1859
2094.00,1.1858
2093.00,1.1857
2092.00,1.1857
2091.00,1.1856
2090.00,1.1855
2089.00,1.1855
2088.00,1.1854
2087.00,1.1854
2086.00,1.1853
2085.00,1.1853
2084.00,1.1852
2083.00,1.1852
2082.00,1.1851
2081.00,1.1850
2080.00,1.1850
2079.00,1.1849
2078.00,1.1848
2077.00,1.1848
2076.00,1.1847
2075.00,1.1847
2074.00,1.1846
2073.00,1.1845
2072.00,1.1845
2071.00,1.1844
2070.00,1.1843
2069.00,1.1843
2068.00,1.1842
2067.00,1.1841
2066.00,1.1841
2065.00,1.1840
2064.00,1.1840
2063.00,1.1839
2062.00,1.1838
2061.00,1.1838
2060.00,1.1837
2059.00,1.1836
2058.00,1.1835
2057.00,1.1835
2056.00,1.1834
2055.00,1.1834
2054.00,1.1833
2053.00,1.1832
2052.00,1.1832
2051.00,1.1831
2050.00,1.1831
2049.00,1.1830
2048.00,1.1830
2047.00,1.1829
2046.00,1.1828
2045.00,1.1828
2044.00,1.1827
2043.00,1.1827
2042.00,1.1826
2041.00,1.1825
2040.00,1.1825
2039.00,1.1824
2038.00,1.1823
2037.00,1.1823
2036.00,1.1823
2035.00,1.1822
2034.00,1.1821
2033.00,1.1821
2032.00,1.1820
2031.00,1.1819
2030.00,1.1819
2029.00,1.1819
2028.00,1.1819
2027.00,1.1818
2026.00,1.1817
2025.00,1.1816
2024.00,1.1816
2023.00,1.1815
2022.00,1.1815
2021.00,1.1814
2020.00,1.1814
2019.00,1.1813
2018.00,1.1812
2017.00,1.1812
2016.00,1.1811
2015.00,1.1811
2014.00,1.1810
2013.00,1.1810
2012.00,1.1809
2011.00,1.1809
2010.00,1.1809
2009.00,1.1809
2008.00,1.1808
2007.00,1.1808
2006.00,1.1807
2005.00,1.1807
2004.00,1.1807
2003.00,1.1806
2002.00,1.1806
2001.00,1.1805
2000.00,1.1804
1999.00,1.1804
1998.00,1.1803
1997.00,1.1802
1996.00,1.1802
1995.00,1.1802
1994.00,1.1802
1993.00,1.1802
1992.00,1.1802
1991.00,1.1801
1990.00,1.1800
1989.00,1.1800
1988.00,1.1799
1987.00,1.1799
1986.00,1.1798
1985.00,1.1798
1984.00,1.1797
1983.00,1.1797
1982.00,1.1796
1981.00,1.1796
1980.00,1.1796
1979.00,1.1796
1978.00,1.1796
1977.00,1.1795
1976.00,1.1795
1975.00,1.1794
1974.00,1.1794
1973.00,1.1794
1972.00,1.1794
1971.00,1.1793
1970.00,1.1793
1969.00,1.1794
1968.00,1.1794
1967.00,1.1793
1966.00,1.1792
1965.00,1.1792
1964.00,1.1792
1963.00,1.1791
1962.00,1.1791
1961.00,1.1791
1960.00,1.1791
1959.00,1.1791
1958.00,1.1791
1957.00,1.1791
1956.00,1.1791
1955.00,1.1790
1954.00,1.1789
1953.00,1.1789
1952.00,1.1789
1951.00,1.1788
1950.00,1.1788
1949.00,1.1788
1948.00,1.1789
1947.00,1.1788
1946.00,1.1788
1945.00,1.1788
1944.00,1.1789
1943.00,1.1789
1942.00,1.1789
1941.00,1.1788
1940.00,1.1788
1939.00,1.1787
1938.00,1.1787
1937.00,1.1787
1936.00,1.1787
1935.00,1.1787
1934.00,1.1787
1933.00,1.1788
1932.00,1.1788
1931.00,1.1787
1930.00,1.1787
1929.00,1.1787
1928.00,1.1787
1927.00,1.1787
1926.00,1.1787
1925.00,1.1788
1924.00,1.1789
1923.00,1.1788
1922.00,1.1788
1921.00,1.1788
1920.00,1.1789
1919.00,1.1790
1918.00,1.1790
1917.00,1.1789
1916.00,1.1788
1915.00,1.1787
1914.00,1.1787
1913.00,1.1788
1912.00,1.1789
1911.00,1.1789
1910.00,1.1789
1909.00,1.1789
1908.00,1.1789
1907.00,1.1789
1906.00,1.1788
1905.00,1.1788
1904.00,1.1789
1903.00,1.1789
1902.00,1.1789
1901.00,1.1789
1900.00,1.1790
1899.00,1.1790
1898.00,1.1790
1897.00,1.1790
1896.00,1.1792
1895.00,1.1792
1894.00,1.1791
1893.00,1.1791
1892.00,1.1792
1891.00,1.1793
1890.00,1.1792
1889.00,1.1792
1888.00,1.1792
1887.00,1.1792
1886.00,1.1791
1885.00,1.1792
1884.00,1.1792
1883.00,1.1792
1882.00,1.1791
1881.00,1.1791
1880.00,1.1792
1879.00,1.1792
1878.00,1.1792
1877.00,1.1792
1876.00,1.1794
1875.00,1.1794
1874.00,1.1793
1873.00,1.1793
1872.00,1.1795
1871.00,1.1796
1870.00,1.1798
1869.00,1.1798
1868.00,1.1798
1867.00,1.1796
1866.00,1.1793
1865.00,1.1793
1864.00,1.1794
1863.00,1.1794
1862.00,1.1793
1861.00,1.1794
1860.00,1.1795
1859.00,1.1796
1858.00,1.1795
1857.00,1.1795
1856.00,1.1796
1855.00,1.1796
1854.00,1.1795
1853.00,1.1796
1852.00,1.1796
1851.00,1.1796
1850.00,1.1796
1849.00,1.1797
1848.00,1.1798
1847.00,1.1799
1846.00,1.1802
1845.00,1.1805
1844.00,1.1805
1843.00,1.1802
1842.00,1.1799
1841.00,1.1797
1840.00,1.1798
1839.00,1.1799
1838.00,1.1799
1837.00,1.1800
1836.00,1.1800
1835.00,1.1800
1834.00,1.1800
1833.00,1.1801
1832.00,1.1804
1831.00,1.1806
1830.00,1.1807
1829.00,1.1806
1828.00,1.1805
1827.00,1.1804
1826.00,1.1804
1825.00,1.1804
1824.00,1.1805
1823.00,1.1805
1822.00,1.1806
1821.00,1.1806
1820.00,1.1808
1819.00,1.1808
1818.00,1.1808
1817.00,1.1808
1816.00,1.1810
1815.00,1.1810
1814.00,1.1809
1813.00,1.1809
1812.00,1.1811
1811.00,1.1811
1810.00,1.1811
1809.00,1.1811
1808.00,1.1812
1807.00,1.1813
1806.00,1.1812
1805.00,1.1812
1804.00,1.1813
1803.00,1.1814
1802.00,1.1813
1801.00,1.1813
1800.00,1.1814
1799.00,1.1814
1798.00,1.1814
1797.00,1.1814
1796.00,1.1816
1795.00,1.1817
1794.00,1.1816
1793.00,1.1816
1792.00,1.1818
1791.00,1.1818
1790.00,1.1817
1789.00,1.1817
1788.00,1.1819
1787.00,1.1820
1786.00,1.1819
1785.00,1.1820
1784.00,1.1822
1783.00,1.1823
1782.00,1.1823
1781.00,1.1823
1780.00,1.1824
1779.00,1.1824
1778.00,1.1824
1777.00,1.1824
1776.00,1.1825
1775.00,1.1827
1774.00,1.1828
1773.00,1.1829
1772.00,1.1829
1771.00,1.1829
1770.00,1.1829
1769.00,1.1829
1768.00,1.1830
1767.00,1.1831
1766.00,1.1832
1765.00,1.1832
1764.00,1.1834
1763.00,1.1837
1762.00,1.1838
1761.00,1.1838
1760.00,1.1838
1759.00,1.1838
1758.00,1.1840
1757.00,1.1839
1756.00,1.1838
1755.00,1.1838
1754.00,1.1837
1753.00,1.1836
1752.00,1.1835
1751.00,1.1835
1750.00,1.1838
1749.00,1.1840
1748.00,1.1841
1747.00,1.1843
1746.00,1.1845
1745.00,1.1847
1744.00,1.1847
1743.00,1.1848
1742.00,1.1848
1741.00,1.1849
1740.00,1.1849
1739.00,1.1849
1738.00,1.1850
1737.00,1.1849
1736.00,1.1849
1735.00,1.1847
1734.00,1.1847
1733.00,1.1848
1732.00,1.1851
1731.00,1.1854
1730.00,1.1856
1729.00,1.1858
1728.00,1.1860
1727.00,1.1860
1726.00,1.1860
1725.00,1.1861
1724.00,1.1863
1723.00,1.1864
1722.00,1.1862
1721.00,1.1861
1720.00,1.1863
1719.00,1.1863
1718.00,1.1861
1717.00,1.1862
1716.00,1.1866
1715.00,1.1867
1714.00,1.1864
1713.00,1.1863
1712.00,1.1867
1711.00,1.1869
1710.00,1.1867
1709.00,1.1868
1708.00,1.1870
1707.00,1.1871
1706.00,1.1870
1705.00,1.1869
1704.00,1.1871
1703.00,1.1871
1702.00,1.1870
1701.00,1.1869
1700.00,1.1871
1699.00,1.1871
1698.00,1.1871
1697.00,1.1873
1696.00,1.1878
1695.00,1.1880
1694.00,1.1879
1693.00,1.1878
1692.00,1.1878
1691.00,1.1878
1690.00,1.1879
1689.00,1.1878
1688.00,1.1877
1687.00,1.1879
1686.00,1.1882
1685.00,1.1886
1684.00,1.1886
1683.00,1.1885
1682.00,1.1885
1681.00,1.1885
1680.00,1.1883
1679.00,1.1882
1678.00,1.1883
1677.00,1.1883
1676.00,1.1882
1675.00,1.1881
1674.00,1.1883
1673.00,1.1884
1672.00,1.1884
1671.00,1.1883
1670.00,1.1885
1669.00,1.1887
1668.00,1.1888
1667.00,1.1888
1666.00,1.1890
1665.00,1.1891
1664.00,1.1892
1663.00,1.1891
1662.00,1.1891
1661.00,1.1892
1660.00,1.1891
1659.00,1.1890
1658.00,1.1892
1657.00,1.1892
1656.00,1.1892
1655.00,1.1893
1654.00,1.1895
1653.00,1.1896
1652.00,1.1897
1651.00,1.1897
1650.00,1.1897
1649.00,1.1896
1648.00,1.1895
1647.00,1.1895
1646.00,1.1896
1645.00,1.1896
1644.00,1.1896
1643.00,1.1896
1642.00,1.1896
1641.00,1.1896
1640.00,1.1896
1639.00,1.1897
1638.00,1.1897
1637.00,1.1897
1636.00,1.1897
1635.00,1.1898
1634.00,1.1899
1633.00,1.1899
1632.00,1.1899
1631.00,1.1898
1630.00,1.1898
1629.00,1.1898
1628.00,1.1898
1627.00,1.1898
1626.00,1.1899
1625.00,1.1899
1624.00,1.1898
1623.00,1.1897
1622.00,1.1898
1621.00,1.1899
1620.00,1.1899
1619.00,1.1899
1618.00,1.1901
1617.00,1.1903
1616.00,1.1903
1615.00,1.1902
1614.00,1.1903
1613.00,1.1903
1612.00,1.1903
1611.00,1.1902
1610.00,1.1904
1609.00,1.1906
1608.00,1.1907
1607.00,1.1907
1606.00,1.1910
1605.00,1.1911
1604.00,1.1910
1603.00,1.1910
1602.00,1.1912
1601.00,1.1913
1600.00,1.1912
1599.00,1.1912
1598.00,1.1913
1597.00,1.1914
1596.00,1.1913
1595.00,1.1912
1594.00,1.1913
1593.00,1.1913
1592.00,1.1913
1591.00,1.1912
1590.00,1.1913
1589.00,1.1914
1588.00,1.1913
1587.00,1.1913
1586.00,1.1914
1585.00,1.1915
1584.00,1.1914
1583.00,1.1913
1582.00,1.1915
1581.00,1.1917
1580.00,1.1917
1579.00,1.1917
1578.00,1.1919
1577.00,1.1921
1576.00,1.1919
1575.00,1.1918
1574.00,1.1918
1573.00,1.1919
1572.00,1.1917
1571.00,1.1916
1570.00,1.1917
1569.00,1.1917
1568.00,1.1914
1567.00,1.1913
1566.00,1.1915
1565.00,1.1916
1564.00,1.1915
1563.00,1.1915
1562.00,1.1919
1561.00,1.1922
1560.00,1.1920
1559.00,1.1918
1558.00,1.1919
1557.00,1.1920
1556.00,1.1919
1555.00,1.1918
1554.00,1.1918
1553.00,1.1918
1552.00,1.1917
1551.00,1.1917
1550.00,1.1918
1549.00,1.1919
1548.00,1.1918
1547.00,1.1917
1546.00,1.1918
1545.00,1.1921
1544.00,1.1922
1543.00,1.1922
1542.00,1.1922
1541.00,1.1922
1540.00,1.1920
1539.00,1.1919
1538.00,1.1919
1537.00,1.1922
1536.00,1.1922
1535.00,1.1922
1534.00,1.1921
1533.00,1.1921
1532.00,1.1921
1531.00,1.1920
1530.00,1.1919
1529.00,1.1920
1528.00,1.1921
1527.00,1.1921
1526.00,1.1921
1525.00,1.1920
1524.00,1.1920
1523.00,1.1919
1522.00,1.1919
1521.00,1.1920
1520.00,1.1920
1519.00,1.1920
1518.00,1.1919
1517.00,1.1918
1516.00,1.1918
1515.00,1.1918
1514.00,1.1917
1513.00,1.1916
1512.00,1.1918
1511.00,1.1919
1510.00,1.1917
1509.00,1.1914
1508.00,1.1913
1507.00,1.1912
1506.00,1.1911
1505.00,1.1910
1504.00,1.1911
1503.00,1.1912
1502.00,1.1911
1501.00,1.1908
1500.00,1.1907
1499.00,1.1906
1498.00,1.1903
1497.00,1.1902
1496.00,1.1905
1495.00,1.1911
1494.00,1.1917
1493.00,1.1921
1492.00,1.1925
1491.00,1.1927
1490.00,1.1927
1489.00,1.1927
1488.00,1.1928
1487.00,1.1927
1486.00,1.1924
1485.00,1.1923
1484.00,1.1924
1483.00,1.1923
1482.00,1.1921
1481.00,1.1920
1480.00,1.1920
1479.00,1.1919
1478.00,1.1916
1477.00,1.1915
1476.00,1.1915
1475.00,1.1913
1474.00,1.1911
1473.00,1.1909
1472.00,1.1910
1471.00,1.1911
1470.00,1.1911
1469.00,1.1913
1468.00,1.1915
1467.00,1.1915
1466.00,1.1914
1465.00,1.1913
1464.00,1.1912
1463.00,1.1912
1462.00,1.1911
1461.00,1.1910
1460.00,1.1910
1459.00,1.1910
1458.00,1.1909
1457.00,1.1905
1456.00,1.1901
1455.00,1.1901
1454.00,1.1904
1453.00,1.1906
1452.00,1.1908
1451.00,1.1912
1450.00,1.1915
1449.00,1.1916
1448.00,1.1917
1447.00,1.1918
1446.00,1.1918
1445.00,1.1915
1444.00,1.1912
1443.00,1.1912
1442.00,1.1913
1441.00,1.1911
1440.00,1.1909
1439.00,1.1910
1438.00,1.1911
1437.00,1.1909
1436.00,1.1907
1435.00,1.1908
1434.00,1.1909
1433.00,1.1908
1432.00,1.1906
1431.00,1.1908
1430.00,1.1909
1429.00,1.1908
1428.00,1.1906
1427.00,1.1907
1426.00,1.1908
1425.00,1.1905
1424.00,1.1902
1423.00,1.1903
1422.00,1.1907
1421.00,1.1908
1420.00,1.1908
1419.00,1.1908
1418.00,1.1907
1417.00,1.1903
1416.00,1.1900
1415.00,1.1901
1414.00,1.1902
1413.00,1.1901
1412.00,1.1900
1411.00,1.1900
1410.00,1.1901
1409.00,1.1900
1408.00,1.1898
1407.00,1.1898
1406.00,1.1899
1405.00,1.1899
1404.00,1.1898
1403.00,1.1899
1402.00,1.1902
1401.00,1.1901
1400.00,1.1900
1399.00,1.1900
1398.00,1.1901
1397.00,1.1901
1396.00,1.1900
1395.00,1.1901
1394.00,1.1901
1393.00,1.1900
1392.00,1.1896
1391.00,1.1895
1390.00,1.1896
1389.00,1.1897
1388.00,1.1896
1387.00,1.1895
1386.00,1.1894
1385.00,1.1894
1384.00,1.1893
1383.00,1.1893
1382.00,1.1893
1381.00,1.1892
1380.00,1.1890
1379.00,1.1889
1378.00,1.1889
1377.00,1.1889
1376.00,1.1888
1375.00,1.1888
1374.00,1.1888
1373.00,1.1888
1372.00,1.1886
1371.00,1.1885
1370.00,1.1885
1369.00,1.1885
1368.00,1.1884
1367.00,1.1884
1366.00,1.1884
1365.00,1.1885
1364.00,1.1885
1363.00,1.1885
1362.00,1.1884
1361.00,1.1883
1360.00,1.1882
1359.00,1.1880
1358.00,1.1880
1357.00,1.1880
1356.00,1.1879
1355.00,1.1879
1354.00,1.1879
1353.00,1.1879
1352.00,1.1878
1351.00,1.1878
1350.00,1.1878
1349.00,1.1878
1348.00,1.1877
1347.00,1.1876
1346.00,1.1876
1345.00,1.1875
1344.00,1.1874
1343.00,1.1874
1342.00,1.1874
1341.00,1.1873
1340.00,1.1873
1339.00,1.1872
1338.00,1.1872
1337.00,1.1872
1336.00,1.1871
1335.00,1.1870
1334.00,1.1870
1333.00,1.1869
1332.00,1.1868
1331.00,1.1868
1330.00,1.1868
1329.00,1.1868
1328.00,1.1867
1327.00,1.1866
1326.00,1.1866
1325.00,1.1866
1324.00,1.1865
1323.00,1.1864
1322.00,1.1864
1321.00,1.1864
1320.00,1.1863
1319.00,1.1862
1318.00,1.1862
1317.00,1.1862
1316.00,1.1861
1315.00,1.1860
1314.00,1.1860
1313.00,1.1860
1312.00,1.1859
1311.00,1.1858
1310.00,1.1858
1309.00,1.1857
1308.00,1.1856
1307.00,1.1855
1306.00,1.1855
1305.00,1.1855
1304.00,1.1854
1303.00,1.1853
1302.00,1.1852
1301.00,1.1852
1300.00,1.1851
1299.00,1.1851
1298.00,1.1851
1297.00,1.1851
1296.00,1.1850
1295.00,1.1850
1294.00,1.1850
1293.00,1.1849
1292.00,1.1848
1291.00,1.1847
1290.00,1.1847
1289.00,1.1846
1288.00,1.1845
1287.00,1.1845
1286.00,1.1845
1285.00,1.1844
1284.00,1.1843
1283.00,1.1842
1282.00,1.1843
1281.00,1.1843
1280.00,1.1842
1279.00,1.1841
1278.00,1.1841
1277.00,1.1841
1276.00,1.1840
1275.00,1.1840
1274.00,1.1839
1273.00,1.1839
1272.00,1.1838
1271.00,1.1837
1270.00,1.1837
1269.00,1.1837
1268.00,1.1836
1267.00,1.1836
1266.00,1.1836
1265.00,1.1837
1264.00,1.1838
1263.00,1.1840
1262.00,1.1843
1261.00,1.1845
1260.00,1.1846
1259.00,1.1847
1258.00,1.1848
1257.00,1.1848
1256.00,1.1846
1255.00,1.1845
1254.00,1.1844
1253.00,1.1843
1252.00,1.1842
1251.00,1.1842
1250.00,1.1842
1249.00,1.1842
1248.00,1.1842
1247.00,1.1842
1246.00,1.1843
1245.00,1.1844
1244.00,1.1844
1243.00,1.1845
1242.00,1.1846
1241.00,1.1847
1240.00,1.1847
1239.00,1.1847
1238.00,1.1848
1237.00,1.1848
1236.00,1.1848
1235.00,1.1849
1234.00,1.1850
1233.00,1.1851
1232.00,1.1850
1231.00,1.1850
1230.00,1.1851
1229.00,1.1851
1228.00,1.1850
1227.00,1.1851
1226.00,1.1852
1225.00,1.1852
1224.00,1.1852
1223.00,1.1853
1222.00,1.1854
1221.00,1.1854
1220.00,1.1854
1219.00,1.1855
1218.00,1.1855
1217.00,1.1855
1216.00,1.1854
1215.00,1.1855
1214.00,1.1856
1213.00,1.1856
1212.00,1.1857
1211.00,1.1857
1210.00,1.1858
1209.00,1.1858
1208.00,1.1858
1207.00,1.1858
1206.00,1.1859
1205.00,1.1860
1204.00,1.1860
1203.00,1.1860
1202.00,1.1861
1201.00,1.1862
1200.00,1.1862
1199.00,1.1863
1198.00,1.1864
1197.00,1.1865
1196.00,1.1864
1195.00,1.1865
1194.00,1.1866
1193.00,1.1867
1192.00,1.1867
1191.00,1.1868
1190.00,1.1869
1189.00,1.1870
1188.00,1.1870
1187.00,1.1870
1186.00,1.1871
1185.00,1.1872
1184.00,1.1871
1183.00,1.1871
1182.00,1.1873
1181.00,1.1874
1180.00,1.1877
1179.00,1.1879
1178.00,1.1882
1177.00,1.1882
1176.00,1.1882
1175.00,1.1882
1174.00,1.1883
1173.00,1.1884
1172.00,1.1885
1171.00,1.1886
1170.00,1.1888
1169.00,1.1888
1168.00,1.1888
1167.00,1.1889
1166.00,1.1890
1165.00,1.1891
1164.00,1.1892
1163.00,1.1893
1162.00,1.1894
1161.00,1.1894
1160.00,1.1895
1159.00,1.1895
1158.00,1.1896
1157.00,1.1896
1156.00,1.1896
1155.00,1.1896
1154.00,1.1897
1153.00,1.1898
1152.00,1.1898
1151.00,1.1899
1150.00,1.1900
1149.00,1.1900
1148.00,1.1900
1147.00,1.1900
1146.00,1.1900
1145.00,1.1900
1144.00,1.1899
1143.00,1.1898
1142.00,1.1899
1141.00,1.1899
1140.00,1.1899
1139.00,1.1899
1138.00,1.1899
1137.00,1.1899
1136.00,1.1897
1135.00,1.1896
1134.00,1.1895
1133.00,1.1895
1132.00,1.1894
1131.00,1.1894
1130.00,1.1895
1129.00,1.1896
1128.00,1.1895
1127.00,1.1895
1126.00,1.1894
1125.00,1.1893
1124.00,1.1891
1123.00,1.1890
1122.00,1.1891
1121.00,1.1890
1120.00,1.1889
1119.00,1.1889
1118.00,1.1889
1117.00,1.1889
1116.00,1.1887
1115.00,1.1886
1114.00,1.1886
1113.00,1.1885
1112.00,1.1884
1111.00,1.1883
1110.00,1.1884
1109.00,1.1884
1108.00,1.1883
1107.00,1.1883
1106.00,1.1882
1105.00,1.1881
1104.00,1.1879
1103.00,1.1877
1102.00,1.1875
1101.00,1.1873
1100.00,1.1870
1099.00,1.1868
1098.00,1.1868
1097.00,1.1866
1096.00,1.1864
1095.00,1.1863
1094.00,1.1862
1093.00,1.1861
1092.00,1.1858
1091.00,1.1856
1090.00,1.1854
1089.00,1.1853
1088.00,1.1851
1087.00,1.1849
1086.00,1.1847
1085.00,1.1845
1084.00,1.1841
1083.00,1.1838
1082.00,1.1835
1081.00,1.1832
1080.00,1.1828
1079.00,1.1825
1078.00,1.1824
1077.00,1.1822
1076.00,1.1819
1075.00,1.1816
1074.00,1.1813
1073.00,1.1810
1072.00,1.1805
1071.00,1.1801
1070.00,1.1798
1069.00,1.1793
1068.00,1.1788
1067.00,1.1784
1066.00,1.1780
1065.00,1.1776
1064.00,1.1772
1063.00,1.1768
1062.00,1.1766
1061.00,1.1763
1060.00,1.1758
1059.00,1.1753
1058.00,1.1749
1057.00,1.1742
1056.00,1.1735
1055.00,1.1729
1054.00,1.1725
1053.00,1.1721
1052.00,1.1716
1051.00,1.1715
1050.00,1.1715
1049.00,1.1713
1048.00,1.1709
1047.00,1.1704
1046.00,1.1700
1045.00,1.1695
1044.00,1.1688
1043.00,1.1682
1042.00,1.1677
1041.00,1.1672
1040.00,1.1667
1039.00,1.1664
1038.00,1.1662
1037.00,1.1658
1036.00,1.1653
1035.00,1.1649
1034.00,1.1645
1033.00,1.1640
1032.00,1.1633
1031.00,1.1627
1030.00,1.1623
1029.00,1.1619
1028.00,1.1615
1027.00,1.1611
1026.00,1.1608
1025.00,1.1603
1024.00,1.1596
1023.00,1.1591
1022.00,1.1588
1021.00,1.1585
1020.00,1.1581
1019.00,1.1578
1018.00,1.1577
1017.00,1.1574
1016.00,1.1569
1015.00,1.1565
1014.00,1.1562
1013.00,1.1559
1012.00,1.1554
1011.00,1.1550
1010.00,1.1546
1009.00,1.1541
1008.00,1.1535
1007.00,1.1532
1006.00,1.1531
1005.00,1.1528
1004.00,1.1521
1003.00,1.1516
1002.00,1.1514
1001.00,1.1512
1000.00,1.1508
