Created as New Dataset,Sample 035 By Administrator Date Monday, February 10 2020
cm-1,A
6000.00,1.1265
5999.00,1.1266
5998.00,1.1266
5997.00,1.1266
5996.00,1.1266
5995.00,1.1267
5994.00,1.1269
5993.00,1.1270
5992.00,1.1271
5991.00,1.1271
5990.00,1.1270
5989.00,1.1269
5988.00,1.1268
5987.00,1.1267
5986.00,1.1266
5985.00,1.1265
5984.00,1.1266
5983.00,1.1267
5982.00,1.1268
5981.00,1.1269
5980.00,1.1269
5979.00,1.1269
5978.00,1.1269
5977.00,1.1268
5976.00,1.1267
5975.00,1.1267
5974.00,1.1266
5973.00,1.1264
5972.00,1.1262
5971.00,1.1260
5970.00,1.1259
5969.00,1.1258
5968.00,1.1258
5967.00,1.1259
5966.00,1.1260
5965.00,1.1261
5964.00,1.1262
5963.00,1.1263
5962.00,1.1265
5961.00,1.1266
5960.00,1.1266
5959.00,1.1267
5958.00,1.1267
5957.00,1.1266
5956.00,1.1264
5955.00,1.1261
5954.00,1.1258
5953.00,1.1256
5952.00,1.1256
5951.00,1.1257
5950.00,1.1258
5949.00,1.1260
5948.00,1.1263
5947.00,1.1265
5946.00,1.1265
5945.00,1.1264
5944.00,1.1263
5943.00,1.1263
5942.00,1.1262
5941.00,1.1261
5940.00,1.1260
5939.00,1.1260
5938.00,1.1261
5937.00,1.1262
5936.00,1.1263
5935.00,1.1263
5934.00,1.1263
5933.00,1.1262
5932.00,1.1261
5931.00,1.1260
5930.00,1.1260
5929.00,1.1261
5928.00,1.1261
5927.00,1.1261
5926.00,1.1260
5925.00,1.1259
5924.00,1.1258
5923.00,1.1257
5922.00,1.1257
5921.00,1.1258
5920.00,1.1260
5919.00,1.1262
5918.00,1.1264
5917.00,1.1264
5916.00,1.1265
5915.00,1.1265
5914.00,1.1264
5913.00,1.1263
5912.00,1.1262
5911.00,1.1261
5910.00,1.1261
5909.00,1.1260
5908.00,1.1259
5907.00,1.1259
5906.00,1.1260
5905.00,1.1260
5904.00,1.1260
5903.00,1.1260
5902.00,1.1260
5901.00,1.1261
5900.00,1.1262
5899.00,1.1263
5898.00,1.1263
5897.00,1.1261
5896.00,1.1260
5895.00,1.1258
5894.00,1.1256
5893.00,1.1255
5892.00,1.1256
5891.00,1.1257
5890.00,1.1258
5889.00,1.1258
5888.00,1.1259
5887.00,1.1260
5886.00,1.1260
5885.00,1.1260
5884.00,1.1261
5883.00,1.1262
5882.00,1.1261
5881.00,1.1259
5880.00,1.1257
5879.00,1.1256
5878.00,1.1256
5877.00,1.1256
5876.00,1.1256
5875.00,1.1257
5874.00,1.1257
5873.00,1.1257
5872.00,1.1258
5871.00,1.1258
5870.00,1.1259
5869.00,1.1258
5868.00,1.1258
5867.00,1.1257
5866.00,1.1256
5865.00,1.1254
5864.00,1.1253
5863.00,1.1252
5862.00,1.1253
5861.00,1.1253
5860.00,1.1252
5859.00,1.1252
5858.00,1.1251
5857.00,1.1251
5856.00,1.1252
5855.00,1.1253
5854.00,1.1253
5853.00,1.1252
5852.00,1.1251
5851.00,1.1250
5850.00,1.1248
5849.00,1.1247
5848.00,1.1247
5847.00,1.1248
5846.00,1.1250
5845.00,1.1251
5844.00,1.1252
5843.00,1.1253
5842.00,1.1254
5841.00,1.1254
5840.00,1.1254
5839.00,1.1255
5838.00,1.1255
5837.00,1.1255
5836.00,1.1255
5835.00,1.1255
5834.00,1.1255
5833.00,1.1255
5832.00,1.1255
5831.00,1.1255
5830.00,1.1255
5829.00,1.1255
5828.00,1.1254
5827.00,1.1253
5826.00,1.1252
5825.00,1.1251
5824.00,1.1251
5823.00,1.1250
5822.00,1.1250
5821.00,1.1250
5820.00,1.1251
5819.00,1.1252
5818.00,1.1254
5817.00,1.1255
5816.00,1.1256
5815.00,1.1257
5814.00,1.1257
5813.00,1.1257
5812.00,1.1257
5811.00,1.1257
5810.00,1.1256
5809.00,1.1255
5808.00,1.1254
5807.00,1.1252
5806.00,1.1250
5805.00,1.1249
5804.00,1.1248
5803.00,1.1248
5802.00,1.1248
5801.00,1.1248
5800.00,1.1249
5799.00,1.1249
5798.00,1.1250
5797.00,1.1250
5796.00,1.1251
5795.00,1.1252
5794.00,1.1253
5793.00,1.1253
5792.00,1.1253
5791.00,1.1252
5790.00,1.1252
5789.00,1.1252
5788.00,1.1253
5787.00,1.1253
5786.00,1.1254
5785.00,1.1254
5784.00,1.1254
5783.00,1.1253
5782.00,1.1252
5781.00,1.1251
5780.00,1.1250
5779.00,1.1249
5778.00,1.1249
5777.00,1.1248
5776.00,1.1248
5775.00,1.1248
5774.00,1.1248
5773.00,1.1249
5772.00,1.1250
5771.00,1.1251
5770.00,1.1252
5769.00,1.1252
5768.00,1.1252
5767.00,1.1253
5766.00,1.1252
5765.00,1.1252
5764.00,1.1252
5763.00,1.1252
5762.00,1.1251
5761.00,1.1250
5760.00,1.1248
5759.00,1.1248
5758.00,1.1248
5757.00,1.1248
5756.00,1.1249
5755.00,1.1250
5754.00,1.1251
5753.00,1.1251
5752.00,1.1251
5751.00,1.1249
5750.00,1.1247
5749.00,1.1245
5748.00,1.1244
5747.00,1.1244
5746.00,1.1244
5745.00,1.1245
5744.00,1.1247
5743.00,1.1248
5742.00,1.1250
5741.00,1.1250
5740.00,1.1250
5739.00,1.1250
5738.00,1.1249
5737.00,1.1249
5736.00,1.1248
5735.00,1.1248
5734.00,1.1248
5733.00,1.1247
5732.00,1.1247
5731.00,1.1246
5730.00,1.1246
5729.00,1.1246
5728.00,1.1246
5727.00,1.1247
5726.00,1.1249
5725.00,1.1250
5724.00,1.1251
5723.00,1.1252
5722.00,1.1253
5721.00,1.1252
5720.00,1.1251
5719.00,1.1249
5718.00,1.1248
5717.00,1.1247
5716.00,1.1246
5715.00,1.1246
5714.00,1.1246
5713.00,1.1247
5712.00,1.1248
5711.00,1.1249
5710.00,1.1249
5709.00,1.1250
5708.00,1.1252
5707.00,1.1253
5706.00,1.1254
5705.00,1.1253
5704.00,1.1252
5703.00,1.1251
5702.00,1.1250
5701.00,1.1248
5700.00,1.1247
5699.00,1.1247
5698.00,1.1248
5697.00,1.1249
5696.00,1.1250
5695.00,1.1251
5694.00,1.1251
5693.00,1.1251
5692.00,1.1251
5691.00,1.1251
5690.00,1.1250
5689.00,1.1250
5688.00,1.1249
5687.00,1.1248
5686.00,1.1247
5685.00,1.1246
5684.00,1.1247
5683.00,1.1248
5682.00,1.1249
5681.00,1.1250
5680.00,1.1251
5679.00,1.1252
5678.00,1.1252
5677.00,1.1251
5676.00,1.1251
5675.00,1.1250
5674.00,1.1249
5673.00,1.1247
5672.00,1.1246
5671.00,1.1244
5670.00,1.1244
5669.00,1.1243
5668.00,1.1244
5667.00,1.1244
5666.00,1.1245
5665.00,1.1246
5664.00,1.1247
5663.00,1.1248
5662.00,1.1249
5661.00,1.1249
5660.00,1.1249
5659.00,1.1248
5658.00,1.1247
5657.00,1.1245
5656.00,1.1243
5655.00,1.1242
5654.00,1.1241
5653.00,1.1240
5652.00,1.1240
5651.00,1.1241
5650.00,1.1243
5649.00,1.1245
5648.00,1.1247
5647.00,1.1250
5646.00,1.1252
5645.00,1.1252
5644.00,1.1251
5643.00,1.1250
5642.00,1.1248
5641.00,1.1246
5640.00,1.1245
5639.00,1.1244
5638.00,1.1244
5637.00,1.1244
5636.00,1.1244
5635.00,1.1245
5634.00,1.1246
5633.00,1.1247
5632.00,1.1248
5631.00,1.1249
5630.00,1.1249
5629.00,1.1248
5628.00,1.1247
5627.00,1.1246
5626.00,1.1245
5625.00,1.1244
5624.00,1.1244
5623.00,1.1244
5622.00,1.1244
5621.00,1.1244
5620.00,1.1244
5619.00,1.1244
5618.00,1.1245
5617.00,1.1246
5616.00,1.1248
5615.00,1.1249
5614.00,1.1248
5613.00,1.1247
5612.00,1.1246
5611.00,1.1246
5610.00,1.1245
5609.00,1.1244
5608.00,1.1244
5607.00,1.1245
5606.00,1.1245
5605.00,1.1245
5604.00,1.1245
5603.00,1.1246
5602.00,1.1246
5601.00,1.1246
5600.00,1.1246
5599.00,1.1246
5598.00,1.1246
5597.00,1.1246
5596.00,1.1245
5595.00,1.1244
5594.00,1.1243
5593.00,1.1241
5592.00,1.1240
5591.00,1.1239
5590.00,1.1240
5589.00,1.1241
5588.00,1.1243
5587.00,1.1245
5586.00,1.1246
5585.00,1.1247
5584.00,1.1247
5583.00,1.1246
5582.00,1.1245
5581.00,1.1243
5580.00,1.1241
5579.00,1.1240
5578.00,1.1240
5577.00,1.1240
5576.00,1.1240
5575.00,1.1241
5574.00,1.1242
5573.00,1.1243
5572.00,1.1243
5571.00,1.1244
5570.00,1.1244
5569.00,1.1244
5568.00,1.1243
5567.00,1.1243
5566.00,1.1242
5565.00,1.1241
5564.00,1.1240
5563.00,1.1240
5562.00,1.1239
5561.00,1.1239
5560.00,1.1239
5559.00,1.1240
5558.00,1.1242
5557.00,1.1243
5556.00,1.1244
5555.00,1.1245
5554.00,1.1245
5553.00,1.1244
5552.00,1.1243
5551.00,1.1241
5550.00,1.1239
5549.00,1.1238
5548.00,1.1237
5547.00,1.1237
5546.00,1.1237
5545.00,1.1238
5544.00,1.1238
5543.00,1.1239
5542.00,1.1240
5541.00,1.1240
5540.00,1.1241
5539.00,1.1241
5538.00,1.1241
5537.00,1.1240
5536.00,1.1239
5535.00,1.1239
5534.00,1.1238
5533.00,1.1238
5532.00,1.1237
5531.00,1.1238
5530.00,1.1238
5529.00,1.1238
5528.00,1.1238
5527.00,1.1239
5526.00,1.1240
5525.00,1.1242
5524.00,1.1243
5523.00,1.1244
5522.00,1.1244
5521.00,1.1242
5520.00,1.1240
5519.00,1.1238
5518.00,1.1236
5517.00,1.1235
5516.00,1.1234
5515.00,1.1234
5514.00,1.1235
5513.00,1.1236
5512.00,1.1238
5511.00,1.1240
5510.00,1.1241
5509.00,1.1241
5508.00,1.1240
5507.00,1.1240
5506.00,1.1239
5505.00,1.1238
5504.00,1.1237
5503.00,1.1237
5502.00,1.1236
5501.00,1.1235
5500.00,1.1235
5499.00,1.1235
5498.00,1.1236
5497.00,1.1237
5496.00,1.1237
5495.00,1.1236
5494.00,1.1236
5493.00,1.1235
5492.00,1.1235
5491.00,1.1236
5490.00,1.1236
5489.00,1.1236
5488.00,1.1235
5487.00,1.1235
5486.00,1.1235
5485.00,1.1235
5484.00,1.1235
5483.00,1.1236
5482.00,1.1237
5481.00,1.1236
5480.00,1.1236
5479.00,1.1236
5478.00,1.1237
5477.00,1.1237
5476.00,1.1237
5475.00,1.1237
5474.00,1.1238
5473.00,1.1238
5472.00,1.1237
5471.00,1.1235
5470.00,1.1234
5469.00,1.1233
5468.00,1.1233
5467.00,1.1234
5466.00,1.1234
5465.00,1.1233
5464.00,1.1232
5463.00,1.1232
5462.00,1.1231
5461.00,1.1231
5460.00,1.1231
5459.00,1.1232
5458.00,1.1233
5457.00,1.1234
5456.00,1.1234
5455.00,1.1234
5454.00,1.1234
5453.00,1.1233
5452.00,1.1233
5451.00,1.1233
5450.00,1.1233
5449.00,1.1233
5448.00,1.1233
5447.00,1.1233
5446.00,1.1231
5445.00,1.1231
5444.00,1.1231
5443.00,1.1232
5442.00,1.1232
5441.00,1.1233
5440.00,1.1234
5439.00,1.1236
5438.00,1.1237
5437.00,1.1236
5436.00,1.1234
5435.00,1.1232
5434.00,1.1230
5433.00,1.1229
5432.00,1.1230
5431.00,1.1230
5430.00,1.1230
5429.00,1.1230
5428.00,1.1231
5427.00,1.1232
5426.00,1.1233
5425.00,1.1234
5424.00,1.1235
5423.00,1.1236
5422.00,1.1236
5421.00,1.1236
5420.00,1.1234
5419.00,1.1233
5418.00,1.1231
5417.00,1.1231
5416.00,1.1230
5415.00,1.1230
5414.00,1.1229
5413.00,1.1230
5412.00,1.1230
5411.00,1.1230
5410.00,1.1229
5409.00,1.1229
5408.00,1.1230
5407.00,1.1231
5406.00,1.1231
5405.00,1.1231
5404.00,1.1232
5403.00,1.1233
5402.00,1.1234
5401.00,1.1234
5400.00,1.1235
5399.00,1.1234
5398.00,1.1234
5397.00,1.1233
5396.00,1.1232
5395.00,1.1232
5394.00,1.1232
5393.00,1.1231
5392.00,1.1231
5391.00,1.1231
5390.00,1.1230
5389.00,1.1229
5388.00,1.1229
5387.00,1.1229
5386.00,1.1229
5385.00,1.1230
5384.00,1.1231
5383.00,1.1231
5382.00,1.1231
5381.00,1.1230
5380.00,1.1231
5379.00,1.1231
5378.00,1.1231
5377.00,1.1230
5376.00,1.1229
5375.00,1.1229
5374.00,1.1229
5373.00,1.1228
5372.00,1.1228
5371.00,1.1229
5370.00,1.1230
5369.00,1.1230
5368.00,1.1230
5367.00,1.1230
5366.00,1.1231
5365.00,1.1231
5364.00,1.1231
5363.00,1.1231
5362.00,1.1231
5361.00,1.1230
5360.00,1.1229
5359.00,1.1228
5358.00,1.1228
5357.00,1.1228
5356.00,1.1228
5355.00,1.1228
5354.00,1.1227
5353.00,1.1227
5352.00,1.1227
5351.00,1.1228
5350.00,1.1229
5349.00,1.1229
5348.00,1.1231
5347.00,1.1232
5346.00,1.1232
5345.00,1.1230
5344.00,1.1228
5343.00,1.1227
5342.00,1.1227
5341.00,1.1227
5340.00,1.1226
5339.00,1.1225
5338.00,1.1225
5337.00,1.1226
5336.00,1.1228
5335.00,1.1229
5334.00,1.1230
5333.00,1.1230
5332.00,1.1231
5331.00,1.1232
5330.00,1.1233
5329.00,1.1234
5328.00,1.1233
5327.00,1.1233
5326.00,1.1234
5325.00,1.1234
5324.00,1.1235
5323.00,1.1235
5322.00,1.1235
5321.00,1.1235
5320.00,1.1235
5319.00,1.1235
5318.00,1.1234
5317.00,1.1234
5316.00,1.1233
5315.00,1.1233
5314.00,1.1232
5313.00,1.1232
5312.00,1.1232
5311.00,1.1233
5310.00,1.1234
5309.00,1.1235
5308.00,1.1235
5307.00,1.1236
5306.00,1.1237
5305.00,1.1237
5304.00,1.1236
5303.00,1.1236
5302.00,1.1235
5301.00,1.1235
5300.00,1.1234
5299.00,1.1234
5298.00,1.1235
5297.00,1.1235
5296.00,1.1236
5295.00,1.1236
5294.00,1.1237
5293.00,1.1238
5292.00,1.1238
5291.00,1.1239
5290.00,1.1239
5289.00,1.1240
5288.00,1.1240
5287.00,1.1240
5286.00,1.1238
5285.00,1.1237
5284.00,1.1237
5283.00,1.1237
5282.00,1.1238
5281.00,1.1238
5280.00,1.1238
5279.00,1.1238
5278.00,1.1239
5277.00,1.1241
5276.00,1.1242
5275.00,1.1243
5274.00,1.1244
5273.00,1.1244
5272.00,1.1244
5271.00,1.1243
5270.00,1.1242
5269.00,1.1240
5268.00,1.1240
5267.00,1.1240
5266.00,1.1240
5265.00,1.1240
5264.00,1.1241
5263.00,1.1242
5262.00,1.1244
5261.00,1.1245
5260.00,1.1245
5259.00,1.1246
5258.00,1.1247
5257.00,1.1247
5256.00,1.1247
5255.00,1.1246
5254.00,1.1245
5253.00,1.1245
5252.00,1.1245
5251.00,1.1246
5250.00,1.1246
5249.00,1.1245
5248.00,1.1246
5247.00,1.1248
5246.00,1.1249
5245.00,1.1250
5244.00,1.1250
5243.00,1.1251
5242.00,1.1252
5241.00,1.1253
5240.00,1.1253
5239.00,1.1254
5238.00,1.1254
5237.00,1.1254
5236.00,1.1254
5235.00,1.1254
5234.00,1.1254
5233.00,1.1254
5232.00,1.1255
5231.00,1.1255
5230.00,1.1257
5229.00,1.1258
5228.00,1.1258
5227.00,1.1258
5226.00,1.1258
5225.00,1.1257
5224.00,1.1258
5223.00,1.1259
5222.00,1.1260
5221.00,1.1260
5220.00,1.1261
5219.00,1.1262
5218.00,1.1263
5217.00,1.1264
5216.00,1.1265
5215.00,1.1266
5214.00,1.1267
5213.00,1.1266
5212.00,1.1266
5211.00,1.1266
5210.00,1.1266
5209.00,1.1266
5208.00,1.1266
5207.00,1.1266
5206.00,1.1267
5205.00,1.1268
5204.00,1.1268
5203.00,1.1270
5202.00,1.1271
5201.00,1.1272
5200.00,1.1274
5199.00,1.1275
5198.00,1.1276
5197.00,1.1276
5196.00,1.1275
5195.00,1.1275
5194.00,1.1275
5193.00,1.1276
5192.00,1.1276
5191.00,1.1276
5190.00,1.1276
5189.00,1.1276
5188.00,1.1276
5187.00,1.1276
5186.00,1.1277
5185.00,1.1278
5184.00,1.1279
5183.00,1.1281
5182.00,1.1283
5181.00,1.1284
5180.00,1.1284
5179.00,1.1284
5178.00,1.1285
5177.00,1.1285
5176.00,1.1285
5175.00,1.1286
5174.00,1.1287
5173.00,1.1288
5172.00,1.1288
5171.00,1.1289
5170.00,1.1290
5169.00,1.1291
5168.00,1.1291
5167.00,1.1291
5166.00,1.1292
5165.00,1.1292
5164.00,1.1292
5163.00,1.1293
5162.00,1.1293
5161.00,1.1293
5160.00,1.1293
5159.00,1.1293
5158.00,1.1294
5157.00,1.1295
5156.00,1.1296
5155.00,1.1297
5154.00,1.1298
5153.00,1.1298
5152.00,1.1299
5151.00,1.1299
5150.00,1.1300
5149.00,1.1300
5148.00,1.1301
5147.00,1.1301
5146.00,1.1301
5145.00,1.1302
5144.00,1.1302
5143.00,1.1303
5142.00,1.1304
5141.00,1.1304
5140.00,1.1305
5139.00,1.1306
5138.00,1.1306
5137.00,1.1306
5136.00,1.1306
5135.00,1.1307
5134.00,1.1308
5133.00,1.1308
5132.00,1.1309
5131.00,1.1309
5130.00,1.1309
5129.00,1.1309
5128.00,1.1309
5127.00,1.1309
5126.00,1.1310
5125.00,1.1311
5124.00,1.1312
5123.00,1.1313
5122.00,1.1313
5121.00,1.1313
5120.00,1.1313
5119.00,1.1313
5118.00,1.1313
5117.00,1.1313
5116.00,1.1313
5115.00,1.1313
5114.00,1.1314
5113.00,1.1315
5112.00,1.1316
5111.00,1.1317
5110.00,1.1317
5109.00,1.1317
5108.00,1.1317
5107.00,1.1317
5106.00,1.1316
5105.00,1.1315
5104.00,1.1315
5103.00,1.1315
5102.00,1.1315
5101.00,1.1315
5100.00,1.1314
5099.00,1.1315
5098.00,1.1316
5097.00,1.1317
5096.00,1.1318
5095.00,1.1320
5094.00,1.1320
5093.00,1.1320
5092.00,1.1320
5091.00,1.1320
5090.00,1.1319
5089.00,1.1319
5088.00,1.1319
5087.00,1.1318
5086.00,1.1318
5085.00,1.1317
5084.00,1.1317
5083.00,1.1318
5082.00,1.1319
5081.00,1.1321
5080.00,1.1322
5079.00,1.1323
5078.00,1.1323
5077.00,1.1323
5076.00,1.1323
5075.00,1.1323
5074.00,1.1322
5073.00,1.1321
5072.00,1.1321
5071.00,1.1320
5070.00,1.1320
5069.00,1.1321
5068.00,1.1323
5067.00,1.1324
5066.00,1.1326
5065.00,1.1326
5064.00,1.1326
5063.00,1.1326
5062.00,1.1326
5061.00,1.1326
5060.00,1.1325
5059.00,1.1325
5058.00,1.1324
5057.00,1.1324
5056.00,1.1323
5055.00,1.1324
5054.00,1.1324
5053.00,1.1325
5052.00,1.1326
5051.00,1.1327
5050.00,1.1327
5049.00,1.1327
5048.00,1.1327
5047.00,1.1327
5046.00,1.1327
5045.00,1.1327
5044.00,1.1326
5043.00,1.1325
5042.00,1.1325
5041.00,1.1324
5040.00,1.1324
5039.00,1.1324
5038.00,1.1325
5037.00,1.1326
5036.00,1.1326
5035.00,1.1327
5034.00,1.1327
5033.00,1.1327
5032.00,1.1327
5031.00,1.1327
5030.00,1.1328
5029.00,1.1328
5028.00,1.1328
5027.00,1.1328
5026.00,1.1327
5025.00,1.1326
5024.00,1.1325
5023.00,1.1326
5022.00,1.1326
5021.00,1.1327
5020.00,1.1327
5019.00,1.1328
5018.00,1.1328
5017.00,1.1328
5016.00,1.1327
5015.00,1.1327
5014.00,1.1326
5013.00,1.1325
5012.00,1.1325
5011.00,1.1325
5010.00,1.1325
5009.00,1.1326
5008.00,1.1327
5007.00,1.1328
5006.00,1.1329
5005.00,1.1330
5004.00,1.1330
5003.00,1.1329
5002.00,1.1328
5001.00,1.1326
5000.00,1.1325
4999.00,1.1325
4998.00,1.1324
4997.00,1.1323
4996.00,1.1322
4995.00,1.1323
4994.00,1.1324
4993.00,1.1325
4992.00,1.1326
4991.00,1.1328
4990.00,1.1328
4989.00,1.1328
4988.00,1.1328
4987.00,1.1328
4986.00,1.1327
4985.00,1.1326
4984.00,1.1326
4983.00,1.1325
4982.00,1.1324
4981.00,1.1323
4980.00,1.1322
4979.00,1.1321
4978.00,1.1321
4977.00,1.1322
4976.00,1.1323
4975.00,1.1325
4974.00,1.1326
4973.00,1.1326
4972.00,1.1326
4971.00,1.1326
4970.00,1.1326
4969.00,1.1325
4968.00,1.1324
4967.00,1.1324
4966.00,1.1323
4965.00,1.1323
4964.00,1.1323
4963.00,1.1323
4962.00,1.1324
4961.00,1.1324
4960.00,1.1325
4959.00,1.1326
4958.00,1.1327
4957.00,1.1328
4956.00,1.1328
4955.00,1.1328
4954.00,1.1327
4953.00,1.1326
4952.00,1.1324
4951.00,1.1323
4950.00,1.1322
4949.00,1.1322
4948.00,1.1322
4947.00,1.1323
4946.00,1.1324
4945.00,1.1325
4944.00,1.1326
4943.00,1.1326
4942.00,1.1327
4941.00,1.1327
4940.00,1.1326
4939.00,1.1325
4938.00,1.1323
4937.00,1.1321
4936.00,1.1319
4935.00,1.1318
4934.00,1.1318
4933.00,1.1318
4932.00,1.1320
4931.00,1.1321
4930.00,1.1321
4929.00,1.1322
4928.00,1.1322
4927.00,1.1322
4926.00,1.1323
4925.00,1.1322
4924.00,1.1322
4923.00,1.1321
4922.00,1.1319
4921.00,1.1318
4920.00,1.1316
4919.00,1.1316
4918.00,1.1317
4917.00,1.1318
4916.00,1.1319
4915.00,1.1320
4914.00,1.1321
4913.00,1.1321
4912.00,1.1322
4911.00,1.1322
4910.00,1.1321
4909.00,1.1320
4908.00,1.1319
4907.00,1.1317
4906.00,1.1316
4905.00,1.1314
4904.00,1.1314
4903.00,1.1314
4902.00,1.1315
4901.00,1.1315
4900.00,1.1316
4899.00,1.1317
4898.00,1.1318
4897.00,1.1318
4896.00,1.1318
4895.00,1.1318
4894.00,1.1317
4893.00,1.1316
4892.00,1.1314
4891.00,1.1314
4890.00,1.1313
4889.00,1.1312
4888.00,1.1312
4887.00,1.1312
4886.00,1.1313
4885.00,1.1314
4884.00,1.1315
4883.00,1.1315
4882.00,1.1316
4881.00,1.1315
4880.00,1.1315
4879.00,1.1314
4878.00,1.1313
4877.00,1.1311
4876.00,1.1310
4875.00,1.1309
4874.00,1.1309
4873.00,1.1309
4872.00,1.1310
4871.00,1.1310
4870.00,1.1311
4869.00,1.1311
4868.00,1.1311
4867.00,1.1312
4866.00,1.1312
4865.00,1.1311
4864.00,1.1311
4863.00,1.1310
4862.00,1.1308
4861.00,1.1307
4860.00,1.1306
4859.00,1.1305
4858.00,1.1305
4857.00,1.1306
4856.00,1.1307
4855.00,1.1308
4854.00,1.1309
4853.00,1.1309
4852.00,1.1310
4851.00,1.1310
4850.00,1.1310
4849.00,1.1309
4848.00,1.1307
4847.00,1.1306
4846.00,1.1304
4845.00,1.1303
4844.00,1.1302
4843.00,1.1302
4842.00,1.1302
4841.00,1.1302
4840.00,1.1302
4839.00,1.1303
4838.00,1.1304
4837.00,1.1304
4836.00,1.1305
4835.00,1.1306
4834.00,1.1305
4833.00,1.1304
4832.00,1.1303
4831.00,1.1301
4830.00,1.1300
4829.00,1.1298
4828.00,1.1297
4827.00,1.1297
4826.00,1.1298
4825.00,1.1299
4824.00,1.1300
4823.00,1.1301
4822.00,1.1302
4821.00,1.1302
4820.00,1.1301
4819.00,1.1300
4818.00,1.1299
4817.00,1.1297
4816.00,1.1296
4815.00,1.1295
4814.00,1.1294
4813.00,1.1293
4812.00,1.1293
4811.00,1.1293
4810.00,1.1294
4809.00,1.1294
4808.00,1.1295
4807.00,1.1296
4806.00,1.1297
4805.00,1.1297
4804.00,1.1296
4803.00,1.1295
4802.00,1.1293
4801.00,1.1291
4800.00,1.1290
4799.00,1.1289
4798.00,1.1288
4797.00,1.1287
4796.00,1.1287
4795.00,1.1287
4794.00,1.1288
4793.00,1.1289
4792.00,1.1289
4791.00,1.1290
4790.00,1.1290
4789.00,1.1289
4788.00,1.1288
4787.00,1.1287
4786.00,1.1286
4785.00,1.1285
4784.00,1.1285
4783.00,1.1285
4782.00,1.1284
4781.00,1.1284
4780.00,1.1283
4779.00,1.1283
4778.00,1.1282
4777.00,1.1283
4776.00,1.1283
4775.00,1.1283
4774.00,1.1283
4773.00,1.1282
4772.00,1.1281
4771.00,1.1280
4770.00,1.1280
4769.00,1.1279
4768.00,1.1279
4767.00,1.1279
4766.00,1.1279
4765.00,1.1278
4764.00,1.1277
4763.00,1.1277
4762.00,1.1276
4761.00,1.1276
4760.00,1.1276
4759.00,1.1276
4758.00,1.1276
4757.00,1.1275
4756.00,1.1273
4755.00,1.1271
4754.00,1.1269
4753.00,1.1268
4752.00,1.1267
4751.00,1.1266
4750.00,1.1266
4749.00,1.1266
4748.00,1.1265
4747.00,1.1265
4746.00,1.1265
4745.00,1.1264
4744.00,1.1263
4743.00,1.1262
4742.00,1.1261
4741.00,1.1260
4740.00,1.1259
4739.00,1.1258
4738.00,1.1256
4737.00,1.1254
4736.00,1.1253
4735.00,1.1253
4734.00,1.1253
4733.00,1.1254
4732.00,1.1255
4731.00,1.1255
4730.00,1.1255
4729.00,1.1254
4728.00,1.1254
4727.00,1.1253
4726.00,1.1252
4725.00,1.1250
4724.00,1.1249
4723.00,1.1248
4722.00,1.1248
4721.00,1.1248
4720.00,1.1248
4719.00,1.1249
4718.00,1.1249
4717.00,1.1249
4716.00,1.1249
4715.00,1.1249
4714.00,1.1249
4713.00,1.1248
4712.00,1.1248
4711.00,1.1248
4710.00,1.1248
4709.00,1.1248
4708.00,1.1247
4707.00,1.1247
4706.00,1.1247
4705.00,1.1247
4704.00,1.1247
4703.00,1.1248
4702.00,1.1249
4701.00,1.1250
4700.00,1.1250
4699.00,1.1250
4698.00,1.1250
4697.00,1.1249
4696.00,1.1249
4695.00,1.1248
4694.00,1.1247
4693.00,1.1246
4692.00,1.1245
4691.00,1.1244
4690.00,1.1243
4689.00,1.1243
4688.00,1.1242
4687.00,1.1242
4686.00,1.1241
4685.00,1.1241
4684.00,1.1241
4683.00,1.1241
4682.00,1.1241
4681.00,1.1241
4680.00,1.1241
4679.00,1.1240
4678.00,1.1239
4677.00,1.1239
4676.00,1.1238
4675.00,1.1239
4674.00,1.1239
4673.00,1.1239
4672.00,1.1239
4671.00,1.1239
4670.00,1.1238
4669.00,1.1238
4668.00,1.1238
4667.00,1.1238
4666.00,1.1238
4665.00,1.1238
4664.00,1.1238
4663.00,1.1238
4662.00,1.1237
4661.00,1.1237
4660.00,1.1237
4659.00,1.1238
4658.00,1.1238
4657.00,1.1238
4656.00,1.1238
4655.00,1.1238
4654.00,1.1238
4653.00,1.1238
4652.00,1.1237
4651.00,1.1237
4650.00,1.1237
4649.00,1.1237
4648.00,1.1237
4647.00,1.1237
4646.00,1.1238
4645.00,1.1238
4644.00,1.1238
4643.00,1.1237
4642.00,1.1237
4641.00,1.1236
4640.00,1.1235
4639.00,1.1235
4638.00,1.1235
4637.00,1.1236
4636.00,1.1237
4635.00,1.1237
4634.00,1.1238
4633.00,1.1238
4632.00,1.1237
4631.00,1.1237
4630.00,1.1238
4629.00,1.1238
4628.00,1.1238
4627.00,1.1238
4626.00,1.1237
4625.00,1.1236
4624.00,1.1235
4623.00,1.1235
4622.00,1.1235
4621.00,1.1236
4620.00,1.1236
4619.00,1.1237
4618.00,1.1237
4617.00,1.1237
4616.00,1.1238
4615.00,1.1238
4614.00,1.1238
4613.00,1.1238
4612.00,1.1237
4611.00,1.1237
4610.00,1.1236
4609.00,1.1235
4608.00,1.1234
4607.00,1.1234
4606.00,1.1234
4605.00,1.1234
4604.00,1.1234
4603.00,1.1234
4602.00,1.1234
4601.00,1.1235
4600.00,1.1236
4599.00,1.1236
4598.00,1.1237
4597.00,1.1237
4596.00,1.1236
4595.00,1.1235
4594.00,1.1235
4593.00,1.1234
4592.00,1.1234
4591.00,1.1234
4590.00,1.1234
4589.00,1.1234
4588.00,1.1235
4587.00,1.1235
4586.00,1.1235
4585.00,1.1235
4584.00,1.1235
4583.00,1.1235
4582.00,1.1235
4581.00,1.1235
4580.00,1.1235
4579.00,1.1235
4578.00,1.1235
4577.00,1.1234
4576.00,1.1234
4575.00,1.1235
4574.00,1.1235
4573.00,1.1236
4572.00,1.1236
4571.00,1.1237
4570.00,1.1237
4569.00,1.1236
4568.00,1.1236
4567.00,1.1236
4566.00,1.1235
4565.00,1.1234
4564.00,1.1234
4563.00,1.1234
4562.00,1.1234
4561.00,1.1234
4560.00,1.1233
4559.00,1.1233
4558.00,1.1233
4557.00,1.1233
4556.00,1.1234
4555.00,1.1234
4554.00,1.1234
4553.00,1.1234
4552.00,1.1234
4551.00,1.1234
4550.00,1.1234
4549.00,1.1233
4548.00,1.1232
4547.00,1.1232
4546.00,1.1231
4545.00,1.1231
4544.00,1.1231
4543.00,1.1231
4542.00,1.1232
4541.00,1.1232
4540.00,1.1233
4539.00,1.1233
4538.00,1.1233
4537.00,1.1233
4536.00,1.1232
4535.00,1.1232
4534.00,1.1231
4533.00,1.1231
4532.00,1.1231
4531.00,1.1230
4530.00,1.1230
4529.00,1.1229
4528.00,1.1228
4527.00,1.1228
4526.00,1.1228
4525.00,1.1229
4524.00,1.1230
4523.00,1.1231
4522.00,1.1232
4521.00,1.1232
4520.00,1.1231
4519.00,1.1231
4518.00,1.1230
4517.00,1.1229
4516.00,1.1228
4515.00,1.1227
4514.00,1.1227
4513.00,1.1227
4512.00,1.1227
4511.00,1.1228
4510.00,1.1229
4509.00,1.1229
4508.00,1.1230
4507.00,1.1230
4506.00,1.1230
4505.00,1.1230
4504.00,1.1229
4503.00,1.1229
4502.00,1.1228
4501.00,1.1227
4500.00,1.1227
4499.00,1.1226
4498.00,1.1227
4497.00,1.1227
4496.00,1.1228
4495.00,1.1228
4494.00,1.1229
4493.00,1.1228
4492.00,1.1228
4491.00,1.1228
4490.00,1.1228
4489.00,1.1227
4488.00,1.1227
4487.00,1.1227
4486.00,1.1226
4485.00,1.1226
4484.00,1.1225
4483.00,1.1226
4482.00,1.1226
4481.00,1.1227
4480.00,1.1228
4479.00,1.1229
4478.00,1.1230
4477.00,1.1230
4476.00,1.1230
4475.00,1.1229
4474.00,1.1228
4473.00,1.1228
4472.00,1.1227
4471.00,1.1227
4470.00,1.1226
4469.00,1.1226
4468.00,1.1225
4467.00,1.1225
4466.00,1.1226
4465.00,1.1226
4464.00,1.1227
4463.00,1.1228
4462.00,1.1229
4461.00,1.1229
4460.00,1.1229
4459.00,1.1229
4458.00,1.1229
4457.00,1.1228
4456.00,1.1228
4455.00,1.1227
4454.00,1.1227
4453.00,1.1226
4452.00,1.1226
4451.00,1.1226
4450.00,1.1227
4449.00,1.1227
4448.00,1.1228
4447.00,1.1229
4446.00,1.1229
4445.00,1.1229
4444.00,1.1228
4443.00,1.1227
4442.00,1.1226
4441.00,1.1226
4440.00,1.1225
4439.00,1.1225
4438.00,1.1225
4437.00,1.1225
4436.00,1.1225
4435.00,1.1226
4434.00,1.1227
4433.00,1.1227
4432.00,1.1228
4431.00,1.1228
4430.00,1.1228
4429.00,1.1228
4428.00,1.1227
4427.00,1.1227
4426.00,1.1225
4425.00,1.1224
4424.00,1.1224
4423.00,1.1223
4422.00,1.1223
4421.00,1.1223
4420.00,1.1224
4419.00,1.1225
4418.00,1.1226
4417.00,1.1227
4416.00,1.1228
4415.00,1.1229
4414.00,1.1228
4413.00,1.1228
4412.00,1.1227
4411.00,1.1226
4410.00,1.1225
4409.00,1.1224
4408.00,1.1224
4407.00,1.1224
4406.00,1.1224
4405.00,1.1224
4404.00,1.1225
4403.00,1.1226
4402.00,1.1227
4401.00,1.1228
4400.00,1.1228
4399.00,1.1228
4398.00,1.1228
4397.00,1.1227
4396.00,1.1226
4395.00,1.1225
4394.00,1.1224
4393.00,1.1224
4392.00,1.1224
4391.00,1.1225
4390.00,1.1226
4389.00,1.1226
4388.00,1.1227
4387.00,1.1228
4386.00,1.1228
4385.00,1.1229
4384.00,1.1229
4383.00,1.1229
4382.00,1.1228
4381.00,1.1228
4380.00,1.1228
4379.00,1.1228
4378.00,1.1228
4377.00,1.1227
4376.00,1.1227
4375.00,1.1227
4374.00,1.1228
4373.00,1.1228
4372.00,1.1229
4371.00,1.1229
4370.00,1.1230
4369.00,1.1230
4368.00,1.1230
4367.00,1.1230
4366.00,1.1230
4365.00,1.1230
4364.00,1.1229
4363.00,1.1229
4362.00,1.1229
4361.00,1.1229
4360.00,1.1229
4359.00,1.1230
4358.00,1.1230
4357.00,1.1230
4356.00,1.1231
4355.00,1.1232
4354.00,1.1233
4353.00,1.1233
4352.00,1.1234
4351.00,1.1234
4350.00,1.1233
4349.00,1.1232
4348.00,1.1231
4347.00,1.1231
4346.00,1.1230
4345.00,1.1230
4344.00,1.1231
4343.00,1.1231
4342.00,1.1232
4341.00,1.1232
4340.00,1.1233
4339.00,1.1234
4338.00,1.1234
4337.00,1.1234
4336.00,1.1233
4335.00,1.1233
4334.00,1.1233
4333.00,1.1232
4332.00,1.1232
4331.00,1.1232
4330.00,1.1232
4329.00,1.1231
4328.00,1.1231
4327.00,1.1231
4326.00,1.1232
4325.00,1.1233
4324.00,1.1234
4323.00,1.1235
4322.00,1.1235
4321.00,1.1235
4320.00,1.1234
4319.00,1.1234
4318.00,1.1234
4317.00,1.1233
4316.00,1.1233
4315.00,1.1233
4314.00,1.1233
4313.00,1.1233
4312.00,1.1234
4311.00,1.1235
4310.00,1.1235
4309.00,1.1236
4308.00,1.1236
4307.00,1.1236
4306.00,1.1236
4305.00,1.1236
4304.00,1.1236
4303.00,1.1236
4302.00,1.1236
4301.00,1.1236
4300.00,1.1235
4299.00,1.1234
4298.00,1.1234
4297.00,1.1234
4296.00,1.1235
4295.00,1.1235
4294.00,1.1237
4293.00,1.1238
4292.00,1.1239
4291.00,1.1239
4290.00,1.1240
4289.00,1.1239
4288.00,1.1239
4287.00,1.1238
4286.00,1.1238
4285.00,1.1237
4284.00,1.1237
4283.00,1.1237
4282.00,1.1237
4281.00,1.1237
4280.00,1.1238
4279.00,1.1238
4278.00,1.1239
4277.00,1.1240
4276.00,1.1241
4275.00,1.1241
4274.00,1.1241
4273.00,1.1241
4272.00,1.1240
4271.00,1.1240
4270.00,1.1239
4269.00,1.1238
4268.00,1.1238
4267.00,1.1238
4266.00,1.1238
4265.00,1.1239
4264.00,1.1240
4263.00,1.1240
4262.00,1.1241
4261.00,1.1242
4260.00,1.1243
4259.00,1.1243
4258.00,1.1244
4257.00,1.1243
4256.00,1.1243
4255.00,1.1242
4254.00,1.1241
4253.00,1.1240
4252.00,1.1239
4251.00,1.1239
4250.00,1.1239
4249.00,1.1240
4248.00,1.1240
4247.00,1.1241
4246.00,1.1242
4245.00,1.1243
4244.00,1.1243
4243.00,1.1243
4242.00,1.1243
4241.00,1.1243
4240.00,1.1242
4239.00,1.1241
4238.00,1.1240
4237.00,1.1240
4236.00,1.1240
4235.00,1.1241
4234.00,1.1242
4233.00,1.1242
4232.00,1.1243
4231.00,1.1243
4230.00,1.1244
4229.00,1.1245
4228.00,1.1245
4227.00,1.1245
4226.00,1.1245
4225.00,1.1244
4224.00,1.1243
4223.00,1.1242
4222.00,1.1241
4221.00,1.1240
4220.00,1.1240
4219.00,1.1240
4218.00,1.1240
4217.00,1.1241
4216.00,1.1242
4215.00,1.1243
4214.00,1.1243
4213.00,1.1243
4212.00,1.1243
4211.00,1.1243
4210.00,1.1243
4209.00,1.1243
4208.00,1.1242
4207.00,1.1241
4206.00,1.1240
4205.00,1.1239
4204.00,1.1239
4203.00,1.1239
4202.00,1.1239
4201.00,1.1240
4200.00,1.1242
4199.00,1.1243
4198.00,1.1245
4197.00,1.1245
4196.00,1.1245
4195.00,1.1245
4194.00,1.1244
4193.00,1.1243
4192.00,1.1242
4191.00,1.1242
4190.00,1.1241
4189.00,1.1240
4188.00,1.1240
4187.00,1.1240
4186.00,1.1241
4185.00,1.1242
4184.00,1.1243
4183.00,1.1244
4182.00,1.1245
4181.00,1.1246
4180.00,1.1245
4179.00,1.1245
4178.00,1.1243
4177.00,1.1242
4176.00,1.1241
4175.00,1.1240
4174.00,1.1239
4173.00,1.1239
4172.00,1.1239
4171.00,1.1239
4170.00,1.1241
4169.00,1.1242
4168.00,1.1243
4167.00,1.1244
4166.00,1.1245
4165.00,1.1245
4164.00,1.1244
4163.00,1.1243
4162.00,1.1242
4161.00,1.1241
4160.00,1.1240
4159.00,1.1239
4158.00,1.1238
4157.00,1.1237
4156.00,1.1238
4155.00,1.1239
4154.00,1.1240
4153.00,1.1241
4152.00,1.1242
4151.00,1.1242
4150.00,1.1242
4149.00,1.1242
4148.00,1.1241
4147.00,1.1240
4146.00,1.1238
4145.00,1.1237
4144.00,1.1236
4143.00,1.1236
4142.00,1.1235
4141.00,1.1236
4140.00,1.1236
4139.00,1.1237
4138.00,1.1238
4137.00,1.1240
4136.00,1.1241
4135.00,1.1241
4134.00,1.1241
4133.00,1.1240
4132.00,1.1240
4131.00,1.1239
4130.00,1.1238
4129.00,1.1236
4128.00,1.1235
4127.00,1.1234
4126.00,1.1234
4125.00,1.1234
4124.00,1.1235
4123.00,1.1236
4122.00,1.1237
4121.00,1.1238
4120.00,1.1238
4119.00,1.1238
4118.00,1.1238
4117.00,1.1238
4116.00,1.1237
4115.00,1.1237
4114.00,1.1236
4113.00,1.1235
4112.00,1.1234
4111.00,1.1234
4110.00,1.1233
4109.00,1.1233
4108.00,1.1234
4107.00,1.1235
4106.00,1.1236
4105.00,1.1237
4104.00,1.1237
4103.00,1.1237
4102.00,1.1236
4101.00,1.1235
4100.00,1.1234
4099.00,1.1233
4098.00,1.1232
4097.00,1.1231
4096.00,1.1230
4095.00,1.1230
4094.00,1.1231
4093.00,1.1232
4092.00,1.1233
4091.00,1.1234
4090.00,1.1235
4089.00,1.1236
4088.00,1.1237
4087.00,1.1237
4086.00,1.1237
4085.00,1.1236
4084.00,1.1235
4083.00,1.1234
4082.00,1.1233
4081.00,1.1232
4080.00,1.1232
4079.00,1.1232
4078.00,1.1233
4077.00,1.1233
4076.00,1.1233
4075.00,1.1234
4074.00,1.1234
4073.00,1.1235
4072.00,1.1235
4071.00,1.1235
4070.00,1.1234
4069.00,1.1234
4068.00,1.1232
4067.00,1.1231
4066.00,1.1230
4065.00,1.1230
4064.00,1.1229
4063.00,1.1230
4062.00,1.1230
4061.00,1.1231
4060.00,1.1231
4059.00,1.1232
4058.00,1.1232
4057.00,1.1232
4056.00,1.1232
4055.00,1.1231
4054.00,1.1230
4053.00,1.1230
4052.00,1.1229
4051.00,1.1228
4050.00,1.1228
4049.00,1.1227
4048.00,1.1227
4047.00,1.1228
4046.00,1.1228
4045.00,1.1228
4044.00,1.1229
4043.00,1.1229
4042.00,1.1230
4041.00,1.1229
4040.00,1.1229
4039.00,1.1228
4038.00,1.1228
4037.00,1.1227
4036.00,1.1226
4035.00,1.1226
4034.00,1.1225
4033.00,1.1225
4032.00,1.1225
4031.00,1.1225
4030.00,1.1225
4029.00,1.1225
4028.00,1.1226
4027.00,1.1226
4026.00,1.1226
4025.00,1.1226
4024.00,1.1225
4023.00,1.1225
4022.00,1.1224
4021.00,1.1224
4020.00,1.1223
4019.00,1.1223
4018.00,1.1223
4017.00,1.1223
4016.00,1.1223
4015.00,1.1223
4014.00,1.1223
4013.00,1.1223
4012.00,1.1223
4011.00,1.1223
4010.00,1.1223
4009.00,1.1223
4008.00,1.1222
4007.00,1.1222
4006.00,1.1221
4005.00,1.1221
4004.00,1.1220
4003.00,1.1220
4002.00,1.1220
4001.00,1.1219
4000.00,1.1219
3999.00,1.1219
3998.00,1.1219
3997.00,1.1219
3996.00,1.1219
3995.00,1.1220
3994.00,1.1220
3993.00,1.1220
3992.00,1.1220
3991.00,1.1220
3990.00,1.1219
3989.00,1.1218
3988.00,1.1217
3987.00,1.1217
3986.00,1.1216
3985.00,1.1216
3984.00,1.1215
3983.00,1.1215
3982.00,1.1215
3981.00,1.1215
3980.00,1.1216
3979.00,1.1216
3978.00,1.1216
3977.00,1.1216
3976.00,1.1216
3975.00,1.1215
3974.00,1.1215
3973.00,1.1215
3972.00,1.1214
3971.00,1.1213
3970.00,1.1213
3969.00,1.1211
3968.00,1.1210
3967.00,1.1210
3966.00,1.1209
3965.00,1.1209
3964.00,1.1209
3963.00,1.1209
3962.00,1.1208
3961.00,1.1209
3960.00,1.1209
3959.00,1.1209
3958.00,1.1209
3957.00,1.1208
3956.00,1.1208
3955.00,1.1208
3954.00,1.1208
3953.00,1.1207
3952.00,1.1207
3951.00,1.1206
3950.00,1.1205
3949.00,1.1204
3948.00,1.1203
3947.00,1.1203
3946.00,1.1203
3945.00,1.1203
3944.00,1.1202
3943.00,1.1202
3942.00,1.1202
3941.00,1.1202
3940.00,1.1201
3939.00,1.1199
3938.00,1.1197
3937.00,1.1196
3936.00,1.1195
3935.00,1.1195
3934.00,1.1194
3933.00,1.1194
3932.00,1.1194
3931.00,1.1194
3930.00,1.1195
3929.00,1.1195
3928.00,1.1196
3927.00,1.1196
3926.00,1.1195
3925.00,1.1194
3924.00,1.1193
3923.00,1.1192
3922.00,1.1190
3921.00,1.1188
3920.00,1.1187
3919.00,1.1186
3918.00,1.1185
3917.00,1.1184
3916.00,1.1183
3915.00,1.1183
3914.00,1.1183
3913.00,1.1183
3912.00,1.1183
3911.00,1.1184
3910.00,1.1184
3909.00,1.1183
3908.00,1.1183
3907.00,1.1182
3906.00,1.1181
3905.00,1.1179
3904.00,1.1177
3903.00,1.1175
3902.00,1.1174
3901.00,1.1172
3900.00,1.1171
3899.00,1.1172
3898.00,1.1174
3897.00,1.1175
3896.00,1.1176
3895.00,1.1176
3894.00,1.1176
3893.00,1.1175
3892.00,1.1173
3891.00,1.1171
3890.00,1.1169
3889.00,1.1168
3888.00,1.1165
3887.00,1.1162
3886.00,1.1161
3885.00,1.1164
3884.00,1.1168
3883.00,1.1170
3882.00,1.1169
3881.00,1.1167
3880.00,1.1166
3879.00,1.1166
3878.00,1.1166
3877.00,1.1164
3876.00,1.1162
3875.00,1.1160
3874.00,1.1160
3873.00,1.1160
3872.00,1.1159
3871.00,1.1156
3870.00,1.1154
3869.00,1.1156
3868.00,1.1158
3867.00,1.1159
3866.00,1.1158
3865.00,1.1158
3864.00,1.1158
3863.00,1.1156
3862.00,1.1154
3861.00,1.1151
3860.00,1.1149
3859.00,1.1147
3858.00,1.1146
3857.00,1.1146
3856.00,1.1148
3855.00,1.1148
3854.00,1.1146
3853.00,1.1145
3852.00,1.1146
3851.00,1.1146
3850.00,1.1145
3849.00,1.1143
3848.00,1.1143
3847.00,1.1142
3846.00,1.1142
3845.00,1.1141
3844.00,1.1141
3843.00,1.1140
3842.00,1.1140
3841.00,1.1139
3840.00,1.1139
3839.00,1.1139
3838.00,1.1141
3837.00,1.1141
3836.00,1.1141
3835.00,1.1140
3834.00,1.1138
3833.00,1.1136
3832.00,1.1133
3831.00,1.1132
3830.00,1.1132
3829.00,1.1132
3828.00,1.1130
3827.00,1.1129
3826.00,1.1129
3825.00,1.1130
3824.00,1.1131
3823.00,1.1130
3822.00,1.1129
3821.00,1.1128
3820.00,1.1129
3819.00,1.1129
3818.00,1.1126
3817.00,1.1123
3816.00,1.1121
3815.00,1.1123
3814.00,1.1123
3813.00,1.1122
3812.00,1.1120
3811.00,1.1119
3810.00,1.1120
3809.00,1.1120
3808.00,1.1119
3807.00,1.1119
3806.00,1.1120
3805.00,1.1121
3804.00,1.1120
3803.00,1.1118
3802.00,1.1117
3801.00,1.1119
3800.00,1.1121
3799.00,1.1120
3798.00,1.1116
3797.00,1.1113
3796.00,1.1112
3795.00,1.1113
3794.00,1.1114
3793.00,1.1114
3792.00,1.1115
3791.00,1.1116
3790.00,1.1117
3789.00,1.1118
3788.00,1.1117
3787.00,1.1116
3786.00,1.1115
3785.00,1.1113
3784.00,1.1111
3783.00,1.1110
3782.00,1.1109
3781.00,1.1108
3780.00,1.1106
3779.00,1.1106
3778.00,1.1107
3777.00,1.1107
3776.00,1.1107
3775.00,1.1107
3774.00,1.1108
3773.00,1.1107
3772.00,1.1106
3771.00,1.1104
3770.00,1.1103
3769.00,1.1102
3768.00,1.1102
3767.00,1.1100
3766.00,1.1098
3765.00,1.1098
3764.00,1.1099
3763.00,1.1100
3762.00,1.1100
3761.00,1.1099
3760.00,1.1100
3759.00,1.1100
3758.00,1.1099
3757.00,1.1097
3756.00,1.1095
3755.00,1.1093
3754.00,1.1090
3753.00,1.1088
3752.00,1.1087
3751.00,1.1085
3750.00,1.1083
3749.00,1.1082
3748.00,1.1082
3747.00,1.1082
3746.00,1.1081
3745.00,1.1080
3744.00,1.1083
3743.00,1.1087
3742.00,1.1087
3741.00,1.1084
3740.00,1.1082
3739.00,1.1082
3738.00,1.1082
3737.00,1.1082
3736.00,1.1082
3735.00,1.1083
3734.00,1.1083
3733.00,1.1082
3732.00,1.1082
3731.00,1.1084
3730.00,1.1087
3729.00,1.1088
3728.00,1.1088
3727.00,1.1088
3726.00,1.1088
3725.00,1.1089
3724.00,1.1088
3723.00,1.1086
3722.00,1.1085
3721.00,1.1085
3720.00,1.1085
3719.00,1.1085
3718.00,1.1085
3717.00,1.1085
3716.00,1.1086
3715.00,1.1087
3714.00,1.1087
3713.00,1.1086
3712.00,1.1086
3711.00,1.1085
3710.00,1.1084
3709.00,1.1083
3708.00,1.1083
3707.00,1.1084
3706.00,1.1085
3705.00,1.1086
3704.00,1.1087
3703.00,1.1088
3702.00,1.1090
3701.00,1.1091
3700.00,1.1094
3699.00,1.1095
3698.00,1.1095
3697.00,1.1095
3696.00,1.1096
3695.00,1.1097
3694.00,1.1097
3693.00,1.1096
3692.00,1.1095
3691.00,1.1095
3690.00,1.1094
3689.00,1.1093
3688.00,1.1094
3687.00,1.1096
3686.00,1.1099
3685.00,1.1101
3684.00,1.1103
3683.00,1.1106
3682.00,1.1107
3681.00,1.1108
3680.00,1.1108
3679.00,1.1109
3678.00,1.1110
3677.00,1.1108
3676.00,1.1107
3675.00,1.1108
3674.00,1.1112
3673.00,1.1115
3672.00,1.1117
3671.00,1.1118
3670.00,1.1121
3669.00,1.1125
3668.00,1.1128
3667.00,1.1131
3666.00,1.1133
3665.00,1.1135
3664.00,1.1137
3663.00,1.1139
3662.00,1.1140
3661.00,1.1141
3660.00,1.1143
3659.00,1.1145
3658.00,1.1146
3657.00,1.1148
3656.00,1.1150
3655.00,1.1154
3654.00,1.1157
3653.00,1.1158
3652.00,1.1158
3651.00,1.1158
3650.00,1.1160
3649.00,1.1162
3648.00,1.1163
3647.00,1.1165
3646.00,1.1168
3645.00,1.1172
3644.00,1.1175
3643.00,1.1177
3642.00,1.1181
3641.00,1.1184
3640.00,1.1188
3639.00,1.1190
3638.00,1.1192
3637.00,1.1194
3636.00,1.1195
3635.00,1.1195
3634.00,1.1195
3633.00,1.1196
3632.00,1.1196
3631.00,1.1195
3630.00,1.1194
3629.00,1.1193
3628.00,1.1196
3627.00,1.1201
3626.00,1.1205
3625.00,1.1208
3624.00,1.1212
3623.00,1.1216
3622.00,1.1219
3621.00,1.1221
3620.00,1.1222
3619.00,1.1224
3618.00,1.1225
3617.00,1.1226
3616.00,1.1227
3615.00,1.1227
3614.00,1.1227
3613.00,1.1227
3612.00,1.1228
3611.00,1.1229
3610.00,1.1230
3609.00,1.1232
3608.00,1.1234
3607.00,1.1237
3606.00,1.1241
3605.00,1.1243
3604.00,1.1245
3603.00,1.1246
3602.00,1.1247
3601.00,1.1248
3600.00,1.1249
3599.00,1.1251
3598.00,1.1252
3597.00,1.1253
3596.00,1.1255
3595.00,1.1255
3594.00,1.1256
3593.00,1.1257
3592.00,1.1257
3591.00,1.1257
3590.00,1.1257
3589.00,1.1257
3588.00,1.1257
3587.00,1.1257
3586.00,1.1258
3585.00,1.1259
3584.00,1.1260
3583.00,1.1262
3582.00,1.1264
3581.00,1.1267
3580.00,1.1269
3579.00,1.1271
3578.00,1.1272
3577.00,1.1273
3576.00,1.1274
3575.00,1.1274
3574.00,1.1274
3573.00,1.1274
3572.00,1.1274
3571.00,1.1274
3570.00,1.1274
3569.00,1.1274
3568.00,1.1274
3567.00,1.1276
3566.00,1.1277
3565.00,1.1279
3564.00,1.1280
3563.00,1.1281
3562.00,1.1282
3561.00,1.1283
3560.00,1.1283
3559.00,1.1284
3558.00,1.1284
3557.00,1.1285
3556.00,1.1285
3555.00,1.1286
3554.00,1.1287
3553.00,1.1288
3552.00,1.1288
3551.00,1.1289
3550.00,1.1290
3549.00,1.1291
3548.00,1.1291
3547.00,1.1291
3546.00,1.1291
3545.00,1.1291
3544.00,1.1291
3543.00,1.1292
3542.00,1.1293
3541.00,1.1294
3540.00,1.1295
3539.00,1.1296
3538.00,1.1297
3537.00,1.1298
3536.00,1.1299
3535.00,1.1301
3534.00,1.1302
3533.00,1.1304
3532.00,1.1305
3531.00,1.1307
3530.00,1.1308
3529.00,1.1308
3528.00,1.1309
3527.00,1.1309
3526.00,1.1309
3525.00,1.1310
3524.00,1.1310
3523.00,1.1312
3522.00,1.1314
3521.00,1.1316
3520.00,1.1318
3519.00,1.1321
3518.00,1.1323
3517.00,1.1324
3516.00,1.1326
3515.00,1.1327
3514.00,1.1328
3513.00,1.1330
3512.00,1.1331
3511.00,1.1334
3510.00,1.1336
3509.00,1.1337
3508.00,1.1339
3507.00,1.1341
3506.00,1.1342
3505.00,1.1344
3504.00,1.1346
3503.00,1.1348
3502.00,1.1350
3501.00,1.1352
3500.00,1.1354
3499.00,1.1356
3498.00,1.1358
3497.00,1.1360
3496.00,1.1362
3495.00,1.1365
3494.00,1.1367
3493.00,1.1370
3492.00,1.1373
3491.00,1.1375
3490.00,1.1378
3489.00,1.1380
3488.00,1.1383
3487.00,1.1386
3486.00,1.1389
3485.00,1.1392
3484.00,1.1395
3483.00,1.1397
3482.00,1.1399
3481.00,1.1401
3480.00,1.1403
3479.00,1.1405
3478.00,1.1408
3477.00,1.1411
3476.00,1.1415
3475.00,1.1418
3474.00,1.1421
3473.00,1.1424
3472.00,1.1427
3471.00,1.1429
3470.00,1.1430
3469.00,1.1431
3468.00,1.1433
3467.00,1.1436
3466.00,1.1439
3465.00,1.1444
3464.00,1.1448
3463.00,1.1452
3462.00,1.1455
3461.00,1.1459
3460.00,1.1462
3459.00,1.1465
3458.00,1.1469
3457.00,1.1472
3456.00,1.1475
3455.00,1.1478
3454.00,1.1481
3453.00,1.1483
3452.00,1.1486
3451.00,1.1489
3450.00,1.1492
3449.00,1.1496
3448.00,1.1499
3447.00,1.1502
3446.00,1.1505
3445.00,1.1508
3444.00,1.1511
3443.00,1.1515
3442.00,1.1518
3441.00,1.1520
3440.00,1.1523
3439.00,1.1525
3438.00,1.1526
3437.00,1.1528
3436.00,1.1531
3435.00,1.1534
3434.00,1.1537
3433.00,1.1541
3432.00,1.1544
3431.00,1.1548
3430.00,1.1551
3429.00,1.1554
3428.00,1.1558
3427.00,1.1561
3426.00,1.1565
3425.00,1.1567
3424.00,1.1569
3423.00,1.1571
3422.00,1.1573
3421.00,1.1574
3420.00,1.1576
3419.00,1.1578
3418.00,1.1581
3417.00,1.1583
3416.00,1.1585
3415.00,1.1587
3414.00,1.1589
3413.00,1.1590
3412.00,1.1592
3411.00,1.1594
3410.00,1.1596
3409.00,1.1597
3408.00,1.1599
3407.00,1.1600
3406.00,1.1601
3405.00,1.1602
3404.00,1.1603
3403.00,1.1603
3402.00,1.1604
3401.00,1.1605
3400.00,1.1607
3399.00,1.1610
3398.00,1.1613
3397.00,1.1617
3396.00,1.1619
3395.00,1.1620
3394.00,1.1620
3393.00,1.1619
3392.00,1.1619
3391.00,1.1620
3390.00,1.1621
3389.00,1.1623
3388.00,1.1625
3387.00,1.1627
3386.00,1.1628
3385.00,1.1630
3384.00,1.1631
3383.00,1.1633
3382.00,1.1635
3381.00,1.1636
3380.00,1.1637
3379.00,1.1637
3378.00,1.1637
3377.00,1.1638
3376.00,1.1638
3375.00,1.1639
3374.00,1.1639
3373.00,1.1640
3372.00,1.1639
3371.00,1.1638
3370.00,1.1638
3369.00,1.1638
3368.00,1.1640
3367.00,1.1642
3366.00,1.1644
3365.00,1.1645
3364.00,1.1646
3363.00,1.1647
3362.00,1.1648
3361.00,1.1648
3360.00,1.1649
3359.00,1.1649
3358.00,1.1650
3357.00,1.1651
3356.00,1.1652
3355.00,1.1652
3354.00,1.1652
3353.00,1.1653
3352.00,1.1653
3351.00,1.1653
3350.00,1.1653
3349.00,1.1654
3348.00,1.1654
3347.00,1.1655
3346.00,1.1656
3345.00,1.1656
3344.00,1.1656
3343.00,1.1656
3342.00,1.1656
3341.00,1.1656
3340.00,1.1656
3339.00,1.1657
3338.00,1.1658
3337.00,1.1659
3336.00,1.1661
3335.00,1.1662
3334.00,1.1663
3333.00,1.1663
3332.00,1.1663
3331.00,1.1664
3330.00,1.1664
3329.00,1.1665
3328.00,1.1665
3327.00,1.1665
3326.00,1.1665
3325.00,1.1665
3324.00,1.1666
3323.00,1.1668
3322.00,1.1669
3321.00,1.1671
3320.00,1.1671
3319.00,1.1672
3318.00,1.1672
3317.00,1.1672
3316.00,1.1673
3315.00,1.1673
3314.00,1.1674
3313.00,1.1674
3312.00,1.1674
3311.00,1.1675
3310.00,1.1675
3309.00,1.1675
3308.00,1.1675
3307.00,1.1675
3306.00,1.1675
3305.00,1.1676
3304.00,1.1678
3303.00,1.1680
3302.00,1.1683
3301.00,1.1684
3300.00,1.1685
3299.00,1.1686
3298.00,1.1686
3297.00,1.1686
3296.00,1.1686
3295.00,1.1686
3294.00,1.1686
3293.00,1.1687
3292.00,1.1688
3291.00,1.1689
3290.00,1.1691
3289.00,1.1693
3288.00,1.1694
3287.00,1.1695
3286.00,1.1696
3285.00,1.1697
3284.00,1.1697
3283.00,1.1698
3282.00,1.1698
3281.00,1.1699
3280.00,1.1699
3279.00,1.1700
3278.00,1.1701
3277.00,1.1702
3276.00,1.1703
3275.00,1.1704
3274.00,1.1704
3273.00,1.1704
3272.00,1.1704
3271.00,1.1705
3270.00,1.1705
3269.00,1.1707
3268.00,1.1709
3267.00,1.1710
3266.00,1.1712
3265.00,1.1713
3264.00,1.1714
3263.00,1.1715
3262.00,1.1716
3261.00,1.1717
3260.00,1.1719
3259.00,1.1719
3258.00,1.1720
3257.00,1.1721
3256.00,1.1721
3255.00,1.1722
3254.00,1.1723
3253.00,1.1724
3252.00,1.1724
3251.00,1.1724
3250.00,1.1724
3249.00,1.1725
3248.00,1.1726
3247.00,1.1727
3246.00,1.1728
3245.00,1.1730
3244.00,1.1731
3243.00,1.1733
3242.00,1.1734
3241.00,1.1735
3240.00,1.1736
3239.00,1.1736
3238.00,1.1737
3237.00,1.1737
3236.00,1.1737
3235.00,1.1737
3234.00,1.1736
3233.00,1.1737
3232.00,1.1738
3231.00,1.1740
3230.00,1.1742
3229.00,1.1744
3228.00,1.1745
3227.00,1.1745
3226.00,1.1746
3225.00,1.1746
3224.00,1.1746
3223.00,1.1746
3222.00,1.1746
3221.00,1.1746
3220.00,1.1746
3219.00,1.1746
3218.00,1.1746
3217.00,1.1747
3216.00,1.1747
3215.00,1.1748
3214.00,1.1748
3213.00,1.1749
3212.00,1.1749
3211.00,1.1749
3210.00,1.1749
3209.00,1.1749
3208.00,1.1749
3207.00,1.1748
3206.00,1.1748
3205.00,1.1748
3204.00,1.1748
3203.00,1.1748
3202.00,1.1748
3201.00,1.1749
3200.00,1.1749
3199.00,1.1750
3198.00,1.1750
3197.00,1.1750
3196.00,1.1750
3195.00,1.1750
3194.00,1.1750
3193.00,1.1750
3192.00,1.1749
3191.00,1.1749
3190.00,1.1748
3189.00,1.1748
3188.00,1.1748
3187.00,1.1748
3186.00,1.1749
3185.00,1.1750
3184.00,1.1751
3183.00,1.1751
3182.00,1.1752
3181.00,1.1752
3180.00,1.1752
3179.00,1.1752
3178.00,1.1751
3177.00,1.1751
3176.00,1.1751
3175.00,1.1751
3174.00,1.1751
3173.00,1.1751
3172.00,1.1751
3171.00,1.1751
3170.00,1.1752
3169.00,1.1753
3168.00,1.1754
3167.00,1.1755
3166.00,1.1755
3165.00,1.1755
3164.00,1.1755
3163.00,1.1755
3162.00,1.1754
3161.00,1.1753
3160.00,1.1753
3159.00,1.1752
3158.00,1.1752
3157.00,1.1753
3156.00,1.1754
3155.00,1.1754
3154.00,1.1754
3153.00,1.1754
3152.00,1.1755
3151.00,1.1756
3150.00,1.1757
3149.00,1.1758
3148.00,1.1758
3147.00,1.1759
3146.00,1.1759
3145.00,1.1759
3144.00,1.1759
3143.00,1.1759
3142.00,1.1759
3141.00,1.1759
3140.00,1.1759
3139.00,1.1759
3138.00,1.1760
3137.00,1.1761
3136.00,1.1762
3135.00,1.1764
3134.00,1.1764
3133.00,1.1765
3132.00,1.1765
3131.00,1.1764
3130.00,1.1764
3129.00,1.1764
3128.00,1.1764
3127.00,1.1764
3126.00,1.1764
3125.00,1.1765
3124.00,1.1765
3123.00,1.1765
3122.00,1.1765
3121.00,1.1764
3120.00,1.1764
3119.00,1.1764
3118.00,1.1764
3117.00,1.1764
3116.00,1.1764
3115.00,1.1764
3114.00,1.1765
3113.00,1.1765
3112.00,1.1766
3111.00,1.1766
3110.00,1.1766
3109.00,1.1766
3108.00,1.1766
3107.00,1.1767
3106.00,1.1768
3105.00,1.1768
3104.00,1.1768
3103.00,1.1768
3102.00,1.1768
3101.00,1.1768
3100.00,1.1767
3099.00,1.1766
3098.00,1.1765
3097.00,1.1764
3096.00,1.1764
3095.00,1.1763
3094.00,1.1764
3093.00,1.1764
3092.00,1.1764
3091.00,1.1764
3090.00,1.1764
3089.00,1.1764
3088.00,1.1764
3087.00,1.1763
3086.00,1.1762
3085.00,1.1761
3084.00,1.1760
3083.00,1.1759
3082.00,1.1758
3081.00,1.1757
3080.00,1.1757
3079.00,1.1756
3078.00,1.1757
3077.00,1.1758
3076.00,1.1759
3075.00,1.1759
3074.00,1.1759
3073.00,1.1759
3072.00,1.1759
3071.00,1.1758
3070.00,1.1756
3069.00,1.1755
3068.00,1.1753
3067.00,1.1752
3066.00,1.1752
3065.00,1.1752
3064.00,1.1753
3063.00,1.1754
3062.00,1.1754
3061.00,1.1754
3060.00,1.1755
3059.00,1.1754
3058.00,1.1754
3057.00,1.1753
3056.00,1.1752
3055.00,1.1751
3054.00,1.1750
3053.00,1.1749
3052.00,1.1748
3051.00,1.1747
3050.00,1.1747
3049.00,1.1747
3048.00,1.1747
3047.00,1.1747
3046.00,1.1747
3045.00,1.1746
3044.00,1.1745
3043.00,1.1745
3042.00,1.1744
3041.00,1.1744
3040.00,1.1744
3039.00,1.1744
3038.00,1.1743
3037.00,1.1742
3036.00,1.1740
3035.00,1.1739
3034.00,1.1739
3033.00,1.1739
3032.00,1.1739
3031.00,1.1740
3030.00,1.1740
3029.00,1.1740
3028.00,1.1740
3027.00,1.1739
3026.00,1.1739
3025.00,1.1738
3024.00,1.1738
3023.00,1.1737
3022.00,1.1736
3021.00,1.1735
3020.00,1.1734
3019.00,1.1734
3018.00,1.1734
3017.00,1.1734
3016.00,1.1734
3015.00,1.1734
3014.00,1.1734
3013.00,1.1734
3012.00,1.1735
3011.00,1.1735
3010.00,1.1735
3009.00,1.1735
3008.00,1.1734
3007.00,1.1733
3006.00,1.1732
3005.00,1.1731
3004.00,1.1730
3003.00,1.1730
3002.00,1.1731
3001.00,1.1731
3000.00,1.1730
2999.00,1.1730
2998.00,1.1729
2997.00,1.1728
2996.00,1.1728
2995.00,1.1727
2994.00,1.1726
2993.00,1.1725
2992.00,1.1724
2991.00,1.1722
2990.00,1.1722
2989.00,1.1722
2988.00,1.1722
2987.00,1.1723
2986.00,1.1723
2985.00,1.1722
2984.00,1.1722
2983.00,1.1721
2982.00,1.1720
2981.00,1.1719
2980.00,1.1718
2979.00,1.1718
2978.00,1.1717
2977.00,1.1715
2976.00,1.1714
2975.00,1.1713
2974.00,1.1712
2973.00,1.1712
2972.00,1.1712
2971.00,1.1711
2970.00,1.1711
2969.00,1.1710
2968.00,1.1710
2967.00,1.1710
2966.00,1.1711
2965.00,1.1711
2964.00,1.1711
2963.00,1.1711
2962.00,1.1711
2961.00,1.1711
2960.00,1.1711
2959.00,1.1711
2958.00,1.1711
2957.00,1.1711
2956.00,1.1711
2955.00,1.1711
2954.00,1.1710
2953.00,1.1708
2952.00,1.1706
2951.00,1.1705
2950.00,1.1703
2949.00,1.1702
2948.00,1.1700
2947.00,1.1697
2946.00,1.1695
2945.00,1.1694
2944.00,1.1693
2943.00,1.1693
2942.00,1.1692
2941.00,1.1692
2940.00,1.1691
2939.00,1.1691
2938.00,1.1690
2937.00,1.1690
2936.00,1.1691
2935.00,1.1691
2934.00,1.1690
2933.00,1.1689
2932.00,1.1688
2931.00,1.1687
2930.00,1.1686
2929.00,1.1686
2928.00,1.1687
2927.00,1.1689
2926.00,1.1691
2925.00,1.1692
2924.00,1.1694
2923.00,1.1696
2922.00,1.1697
2921.00,1.1699
2920.00,1.1699
2919.00,1.1699
2918.00,1.1698
2917.00,1.1696
2916.00,1.1695
2915.00,1.1693
2914.00,1.1692
2913.00,1.1692
2912.00,1.1691
2911.00,1.1690
2910.00,1.1689
2909.00,1.1688
2908.00,1.1686
2907.00,1.1684
2906.00,1.1682
2905.00,1.1681
2904.00,1.1679
2903.00,1.1678
2902.00,1.1676
2901.00,1.1675
2900.00,1.1674
2899.00,1.1674
2898.00,1.1673
2897.00,1.1674
2896.00,1.1674
2895.00,1.1674
2894.00,1.1673
2893.00,1.1672
2892.00,1.1670
2891.00,1.1669
2890.00,1.1668
2889.00,1.1666
2888.00,1.1664
2887.00,1.1663
2886.00,1.1661
2885.00,1.1660
2884.00,1.1659
2883.00,1.1659
2882.00,1.1659
2881.00,1.1659
2880.00,1.1658
2879.00,1.1657
2878.00,1.1656
2877.00,1.1654
2876.00,1.1652
2875.00,1.1650
2874.00,1.1647
2873.00,1.1645
2872.00,1.1644
2871.00,1.1643
2870.00,1.1642
2869.00,1.1641
2868.00,1.1641
2867.00,1.1641
2866.00,1.1640
2865.00,1.1641
2864.00,1.1641
2863.00,1.1641
2862.00,1.1641
2861.00,1.1641
2860.00,1.1641
2859.00,1.1641
2858.00,1.1641
2857.00,1.1640
2856.00,1.1640
2855.00,1.1640
2854.00,1.1640
2853.00,1.1641
2852.00,1.1642
2851.00,1.1644
2850.00,1.1645
2849.00,1.1645
2848.00,1.1645
2847.00,1.1644
2846.00,1.1642
2845.00,1.1640
2844.00,1.1638
2843.00,1.1635
2842.00,1.1633
2841.00,1.1631
2840.00,1.1630
2839.00,1.1629
2838.00,1.1629
2837.00,1.1630
2836.00,1.1631
2835.00,1.1631
2834.00,1.1631
2833.00,1.1630
2832.00,1.1629
2831.00,1.1628
2830.00,1.1626
2829.00,1.1624
2828.00,1.1622
2827.00,1.1620
2826.00,1.1619
2825.00,1.1618
2824.00,1.1617
2823.00,1.1618
2822.00,1.1619
2821.00,1.1620
2820.00,1.1621
2819.00,1.1621
2818.00,1.1620
2817.00,1.1619
2816.00,1.1617
2815.00,1.1615
2814.00,1.1614
2813.00,1.1612
2812.00,1.1610
2811.00,1.1609
2810.00,1.1608
2809.00,1.1608
2808.00,1.1609
2807.00,1.1610
2806.00,1.1611
2805.00,1.1612
2804.00,1.1612
2803.00,1.1612
2802.00,1.1612
2801.00,1.1611
2800.00,1.1609
2799.00,1.1607
2798.00,1.1604
2797.00,1.1602
2796.00,1.1601
2795.00,1.1600
2794.00,1.1600
2793.00,1.1600
2792.00,1.1601
2791.00,1.1603
2790.00,1.1604
2789.00,1.1605
2788.00,1.1605
2787.00,1.1605
2786.00,1.1604
2785.00,1.1603
2784.00,1.1601
2783.00,1.1599
2782.00,1.1597
2781.00,1.1595
2780.00,1.1594
2779.00,1.1594
2778.00,1.1594
2777.00,1.1595
2776.00,1.1597
2775.00,1.1598
2774.00,1.1598
2773.00,1.1599
2772.00,1.1599
2771.00,1.1598
2770.00,1.1597
2769.00,1.1596
2768.00,1.1594
2767.00,1.1592
2766.00,1.1590
2765.00,1.1589
2764.00,1.1589
2763.00,1.1589
2762.00,1.1590
2761.00,1.1591
2760.00,1.1593
2759.00,1.1594
2758.00,1.1595
2757.00,1.1595
2756.00,1.1594
2755.00,1.1593
2754.00,1.1592
2753.00,1.1590
2752.00,1.1588
2751.00,1.1586
2750.00,1.1585
2749.00,1.1584
2748.00,1.1585
2747.00,1.1585
2746.00,1.1587
2745.00,1.1589
2744.00,1.1591
2743.00,1.1592
2742.00,1.1592
2741.00,1.1592
2740.00,1.1591
2739.00,1.1590
2738.00,1.1588
2737.00,1.1586
2736.00,1.1584
2735.00,1.1583
2734.00,1.1582
2733.00,1.1582
2732.00,1.1583
2731.00,1.1584
2730.00,1.1586
2729.00,1.1588
2728.00,1.1589
2727.00,1.1589
2726.00,1.1589
2725.00,1.1588
2724.00,1.1587
2723.00,1.1586
2722.00,1.1584
2721.00,1.1583
2720.00,1.1581
2719.00,1.1580
2718.00,1.1579
2717.00,1.1579
2716.00,1.1581
2715.00,1.1583
2714.00,1.1585
2713.00,1.1587
2712.00,1.1588
2711.00,1.1588
2710.00,1.1588
2709.00,1.1586
2708.00,1.1585
2707.00,1.1583
2706.00,1.1581
2705.00,1.1580
2704.00,1.1579
2703.00,1.1578
2702.00,1.1578
2701.00,1.1579
2700.00,1.1581
2699.00,1.1583
2698.00,1.1585
2697.00,1.1586
2696.00,1.1587
2695.00,1.1587
2694.00,1.1586
2693.00,1.1585
2692.00,1.1583
2691.00,1.1581
2690.00,1.1580
2689.00,1.1579
2688.00,1.1578
2687.00,1.1579
2686.00,1.1580
2685.00,1.1581
2684.00,1.1583
2683.00,1.1585
2682.00,1.1587
2681.00,1.1587
2680.00,1.1588
2679.00,1.1587
2678.00,1.1586
2677.00,1.1585
2676.00,1.1583
2675.00,1.1582
2674.00,1.1580
2673.00,1.1580
2672.00,1.1580
2671.00,1.1581
2670.00,1.1582
2669.00,1.1584
2668.00,1.1586
2667.00,1.1588
2666.00,1.1589
2665.00,1.1589
2664.00,1.1589
2663.00,1.1588
2662.00,1.1587
2661.00,1.1586
2660.00,1.1584
2659.00,1.1584
2658.00,1.1583
2657.00,1.1583
2656.00,1.1584
2655.00,1.1585
2654.00,1.1587
2653.00,1.1589
2652.00,1.1591
2651.00,1.1592
2650.00,1.1593
2649.00,1.1593
2648.00,1.1592
2647.00,1.1591
2646.00,1.1590
2645.00,1.1589
2644.00,1.1587
2643.00,1.1586
2642.00,1.1586
2641.00,1.1587
2640.00,1.1588
2639.00,1.1590
2638.00,1.1592
2637.00,1.1593
2636.00,1.1595
2635.00,1.1595
2634.00,1.1595
2633.00,1.1595
2632.00,1.1594
2631.00,1.1593
2630.00,1.1592
2629.00,1.1591
2628.00,1.1590
2627.00,1.1590
2626.00,1.1590
2625.00,1.1592
2624.00,1.1593
2623.00,1.1595
2622.00,1.1596
2621.00,1.1597
2620.00,1.1598
2619.00,1.1598
2618.00,1.1598
2617.00,1.1597
2616.00,1.1596
2615.00,1.1595
2614.00,1.1594
2613.00,1.1594
2612.00,1.1594
2611.00,1.1594
2610.00,1.1595
2609.00,1.1597
2608.00,1.1598
2607.00,1.1600
2606.00,1.1601
2605.00,1.1601
2604.00,1.1601
2603.00,1.1601
2602.00,1.1600
2601.00,1.1599
2600.00,1.1598
2599.00,1.1597
2598.00,1.1596
2597.00,1.1596
2596.00,1.1597
2595.00,1.1598
2594.00,1.1600
2593.00,1.1602
2592.00,1.1604
2591.00,1.1605
2590.00,1.1605
2589.00,1.1605
2588.00,1.1605
2587.00,1.1605
2586.00,1.1604
2585.00,1.1603
2584.00,1.1602
2583.00,1.1601
2582.00,1.1601
2581.00,1.1601
2580.00,1.1603
2579.00,1.1604
2578.00,1.1606
2577.00,1.1607
2576.00,1.1608
2575.00,1.1608
2574.00,1.1609
2573.00,1.1609
2572.00,1.1608
2571.00,1.1608
2570.00,1.1607
2569.00,1.1607
2568.00,1.1606
2567.00,1.1606
2566.00,1.1606
2565.00,1.1607
2564.00,1.1608
2563.00,1.1610
2562.00,1.1611
2561.00,1.1612
2560.00,1.1613
2559.00,1.1614
2558.00,1.1614
2557.00,1.1614
2556.00,1.1613
2555.00,1.1612
2554.00,1.1612
2553.00,1.1611
2552.00,1.1611
2551.00,1.1611
2550.00,1.1612
2549.00,1.1613
2548.00,1.1615
2547.00,1.1616
2546.00,1.1617
2545.00,1.1618
2544.00,1.1618
2543.00,1.1618
2542.00,1.1618
2541.00,1.1617
2540.00,1.1616
2539.00,1.1615
2538.00,1.1614
2537.00,1.1614
2536.00,1.1615
2535.00,1.1616
2534.00,1.1617
2533.00,1.1619
2532.00,1.1621
2531.00,1.1622
2530.00,1.1623
2529.00,1.1623
2528.00,1.1623
2527.00,1.1623
2526.00,1.1622
2525.00,1.1622
2524.00,1.1621
2523.00,1.1621
2522.00,1.1621
2521.00,1.1621
2520.00,1.1622
2519.00,1.1623
2518.00,1.1625
2517.00,1.1626
2516.00,1.1627
2515.00,1.1628
2514.00,1.1628
2513.00,1.1628
2512.00,1.1627
2511.00,1.1626
2510.00,1.1626
2509.00,1.1625
2508.00,1.1625
2507.00,1.1625
2506.00,1.1625
2505.00,1.1626
2504.00,1.1628
2503.00,1.1630
2502.00,1.1631
2501.00,1.1633
2500.00,1.1633
2499.00,1.1634
2498.00,1.1634
2497.00,1.1633
2496.00,1.1633
2495.00,1.1632
2494.00,1.1631
2493.00,1.1631
2492.00,1.1631
2491.00,1.1631
2490.00,1.1632
2489.00,1.1633
2488.00,1.1635
2487.00,1.1636
2486.00,1.1637
2485.00,1.1638
2484.00,1.1639
2483.00,1.1639
2482.00,1.1638
2481.00,1.1637
2480.00,1.1637
2479.00,1.1636
2478.00,1.1635
2477.00,1.1635
2476.00,1.1636
2475.00,1.1636
2474.00,1.1638
2473.00,1.1640
2472.00,1.1642
2471.00,1.1644
2470.00,1.1645
2469.00,1.1645
2468.00,1.1645
2467.00,1.1645
2466.00,1.1644
2465.00,1.1643
2464.00,1.1643
2463.00,1.1642
2462.00,1.1642
2461.00,1.1643
2460.00,1.1644
2459.00,1.1645
2458.00,1.1646
2457.00,1.1647
2456.00,1.1649
2455.00,1.1650
2454.00,1.1650
2453.00,1.1650
2452.00,1.1650
2451.00,1.1649
2450.00,1.1648
2449.00,1.1647
2448.00,1.1646
2447.00,1.1646
2446.00,1.1646
2445.00,1.1647
2444.00,1.1648
2443.00,1.1649
2442.00,1.1650
2441.00,1.1651
2440.00,1.1652
2439.00,1.1652
2438.00,1.1652
2437.00,1.1652
2436.00,1.1652
2435.00,1.1651
2434.00,1.1651
2433.00,1.1651
2432.00,1.1650
2431.00,1.1650
2430.00,1.1651
2429.00,1.1652
2428.00,1.1653
2427.00,1.1654
2426.00,1.1655
2425.00,1.1655
2424.00,1.1655
2423.00,1.1654
2422.00,1.1653
2421.00,1.1652
2420.00,1.1651
2419.00,1.1649
2418.00,1.1648
2417.00,1.1648
2416.00,1.1647
2415.00,1.1647
2414.00,1.1647
2413.00,1.1647
2412.00,1.1648
2411.00,1.1648
2410.00,1.1649
2409.00,1.1648
2408.00,1.1648
2407.00,1.1647
2406.00,1.1646
2405.00,1.1645
2404.00,1.1643
2403.00,1.1642
2402.00,1.1642
2401.00,1.1641
2400.00,1.1641
2399.00,1.1642
2398.00,1.1642
2397.00,1.1643
2396.00,1.1644
2395.00,1.1644
2394.00,1.1645
2393.00,1.1644
2392.00,1.1644
2391.00,1.1643
2390.00,1.1642
2389.00,1.1641
2388.00,1.1641
2387.00,1.1641
2386.00,1.1641
2385.00,1.1642
2384.00,1.1643
2383.00,1.1644
2382.00,1.1646
2381.00,1.1648
2380.00,1.1650
2379.00,1.1652
2378.00,1.1652
2377.00,1.1653
2376.00,1.1653
2375.00,1.1653
2374.00,1.1652
2373.00,1.1651
2372.00,1.1650
2371.00,1.1649
2370.00,1.1649
2369.00,1.1649
2368.00,1.1650
2367.00,1.1650
2366.00,1.1651
2365.00,1.1652
2364.00,1.1653
2363.00,1.1653
2362.00,1.1652
2361.00,1.1652
2360.00,1.1651
2359.00,1.1651
2358.00,1.1651
2357.00,1.1651
2356.00,1.1652
2355.00,1.1653
2354.00,1.1654
2353.00,1.1655
2352.00,1.1655
2351.00,1.1655
2350.00,1.1654
2349.00,1.1653
2348.00,1.1653
2347.00,1.1653
2346.00,1.1654
2345.00,1.1654
2344.00,1.1654
2343.00,1.1653
2342.00,1.1654
2341.00,1.1655
2340.00,1.1656
2339.00,1.1656
2338.00,1.1656
2337.00,1.1656
2336.00,1.1656
2335.00,1.1656
2334.00,1.1656
2333.00,1.1656
2332.00,1.1655
2331.00,1.1654
2330.00,1.1653
2329.00,1.1653
2328.00,1.1653
2327.00,1.1652
2326.00,1.1652
2325.00,1.1653
2324.00,1.1655
2323.00,1.1656
2322.00,1.1657
2321.00,1.1658
2320.00,1.1658
2319.00,1.1658
2318.00,1.1657
2317.00,1.1657
2316.00,1.1657
2315.00,1.1657
2314.00,1.1657
2313.00,1.1657
2312.00,1.1657
2311.00,1.1657
2310.00,1.1657
2309.00,1.1658
2308.00,1.1658
2307.00,1.1659
2306.00,1.1660
2305.00,1.1661
2304.00,1.1661
2303.00,1.1660
2302.00,1.1659
2301.00,1.1658
2300.00,1.1657
2299.00,1.1656
2298.00,1.1656
2297.00,1.1656
2296.00,1.1657
2295.00,1.1657
2294.00,1.1657
2293.00,1.1658
2292.00,1.1659
2291.00,1.1659
2290.00,1.1660
2289.00,1.1660
2288.00,1.1660
2287.00,1.1659
2286.00,1.1658
2285.00,1.1658
2284.00,1.1658
2283.00,1.1658
2282.00,1.1659
2281.00,1.1659
2280.00,1.1661
2279.00,1.1662
2278.00,1.1663
2277.00,1.1664
2276.00,1.1665
2275.00,1.1665
2274.00,1.1665
2273.00,1.1665
2272.00,1.1665
2271.00,1.1664
2270.00,1.1663
2269.00,1.1663
2268.00,1.1663
2267.00,1.1663
2266.00,1.1663
2265.00,1.1664
2264.00,1.1665
2263.00,1.1665
2262.00,1.1666
2261.00,1.1667
2260.00,1.1667
2259.00,1.1667
2258.00,1.1667
2257.00,1.1667
2256.00,1.1666
2255.00,1.1665
2254.00,1.1665
2253.00,1.1665
2252.00,1.1665
2251.00,1.1666
2250.00,1.1666
2249.00,1.1667
2248.00,1.1668
2247.00,1.1668
2246.00,1.1669
2245.00,1.1670
2244.00,1.1670
2243.00,1.1670
2242.00,1.1669
2241.00,1.1668
2240.00,1.1667
2239.00,1.1666
2238.00,1.1666
2237.00,1.1666
2236.00,1.1667
2235.00,1.1667
2234.00,1.1668
2233.00,1.1668
2232.00,1.1669
2231.00,1.1670
2230.00,1.1671
2229.00,1.1671
2228.00,1.1671
2227.00,1.1670
2226.00,1.1669
2225.00,1.1668
2224.00,1.1668
2223.00,1.1667
2222.00,1.1667
2221.00,1.1668
2220.00,1.1668
2219.00,1.1669
2218.00,1.1670
2217.00,1.1671
2216.00,1.1672
2215.00,1.1672
2214.00,1.1672
2213.00,1.1671
2212.00,1.1670
2211.00,1.1669
2210.00,1.1668
2209.00,1.1667
2208.00,1.1667
2207.00,1.1667
2206.00,1.1667
2205.00,1.1667
2204.00,1.1668
2203.00,1.1668
2202.00,1.1669
2201.00,1.1669
2200.00,1.1670
2199.00,1.1670
2198.00,1.1669
2197.00,1.1668
2196.00,1.1667
2195.00,1.1666
2194.00,1.1665
2193.00,1.1665
2192.00,1.1665
2191.00,1.1665
2190.00,1.1666
2189.00,1.1666
2188.00,1.1667
2187.00,1.1668
2186.00,1.1668
2185.00,1.1669
2184.00,1.1668
2183.00,1.1668
2182.00,1.1666
2181.00,1.1665
2180.00,1.1664
2179.00,1.1663
2178.00,1.1662
2177.00,1.1662
2176.00,1.1662
2175.00,1.1662
2174.00,1.1662
2173.00,1.1663
2172.00,1.1663
2171.00,1.1664
2170.00,1.1664
2169.00,1.1664
2168.00,1.1663
2167.00,1.1662
2166.00,1.1661
2165.00,1.1659
2164.00,1.1658
2163.00,1.1657
2162.00,1.1657
2161.00,1.1657
2160.00,1.1658
2159.00,1.1658
2158.00,1.1658
2157.00,1.1659
2156.00,1.1659
2155.00,1.1659
2154.00,1.1659
2153.00,1.1658
2152.00,1.1657
2151.00,1.1655
2150.00,1.1653
2149.00,1.1652
2148.00,1.1652
2147.00,1.1651
2146.00,1.1650
2145.00,1.1651
2144.00,1.1651
2143.00,1.1651
2142.00,1.1652
2141.00,1.1652
2140.00,1.1652
2139.00,1.1652
2138.00,1.1651
2137.00,1.1651
2136.00,1.1649
2135.00,1.1647
2134.00,1.1645
2133.00,1.1644
2132.00,1.1644
2131.00,1.1644
2130.00,1.1644
2129.00,1.1645
2128.00,1.1645
2127.00,1.1645
2126.00,1.1645
2125.00,1.1645
2124.00,1.1645
2123.00,1.1644
2122.00,1.1643
2121.00,1.1641
2120.00,1.1640
2119.00,1.1638
2118.00,1.1637
2117.00,1.1636
2116.00,1.1636
2115.00,1.1636
2114.00,1.1636
2113.00,1.1637
2112.00,1.1637
2111.00,1.1637
2110.00,1.1637
2109.00,1.1637
2108.00,1.1637
2107.00,1.1635
2106.00,1.1634
2105.00,1.1632
2104.00,1.1631
2103.00,1.1630
2102.00,1.1629
2101.00,1.1628
2100.00,1.1628
2099.00,1.1629
2098.00,1.1629
2097.00,1.1629
2096.00,1.1630
2095.00,1.1629
2094.00,1.1629
2093.00,1.1628
2092.00,1.1628
2091.00,1.1626
2090.00,1.1625
2089.00,1.1623
2088.00,1.1622
2087.00,1.1621
2086.00,1.1621
2085.00,1.1621
2084.00,1.1622
2083.00,1.1622
2082.00,1.1621
2081.00,1.1621
2080.00,1.1621
2079.00,1.1620
2078.00,1.1620
2077.00,1.1619
2076.00,1.1617
2075.00,1.1616
2074.00,1.1614
2073.00,1.1613
2072.00,1.1612
2071.00,1.1612
2070.00,1.1611
2069.00,1.1612
2068.00,1.1612
2067.00,1.1613
2066.00,1.1613
2065.00,1.1613
2064.00,1.1613
2063.00,1.1612
2062.00,1.1610
2061.00,1.1609
2060.00,1.1607
2059.00,1.1605
2058.00,1.1604
2057.00,1.1603
2056.00,1.1603
2055.00,1.1603
2054.00,1.1604
2053.00,1.1604
2052.00,1.1604
2051.00,1.1604
2050.00,1.1604
2049.00,1.1603
2048.00,1.1602
2047.00,1.1600
2046.00,1.1599
2045.00,1.1597
2044.00,1.1596
2043.00,1.1595
2042.00,1.1594
2041.00,1.1594
2040.00,1.1595
2039.00,1.1595
2038.00,1.1595
2037.00,1.1596
2036.00,1.1596
2035.00,1.1596
2034.00,1.1595
2033.00,1.1594
2032.00,1.1593
2031.00,1.1591
2030.00,1.1589
2029.00,1.1588
2028.00,1.1587
2027.00,1.1586
2026.00,1.1586
2025.00,1.1586
2024.00,1.1586
2023.00,1.1587
2022.00,1.1587
2021.00,1.1587
2020.00,1.1588
2019.00,1.1588
2018.00,1.1587
2017.00,1.1586
2016.00,1.1584
2015.00,1.1582
2014.00,1.1580
2013.00,1.1579
2012.00,1.1579
2011.00,1.1579
2010.00,1.1579
2009.00,1.1579
2008.00,1.1580
2007.00,1.1580
2006.00,1.1579
2005.00,1.1580
2004.00,1.1580
2003.00,1.1579
2002.00,1.1578
2001.00,1.1577
2000.00,1.1576
1999.00,1.1574
1998.00,1.1574
1997.00,1.1573
1996.00,1.1574
1995.00,1.1574
1994.00,1.1575
1993.00,1.1576
1992.00,1.1576
1991.00,1.1576
1990.00,1.1575
1989.00,1.1574
1988.00,1.1573
1987.00,1.1572
1986.00,1.1570
1985.00,1.1569
1984.00,1.1568
1983.00,1.1567
1982.00,1.1567
1981.00,1.1567
1980.00,1.1568
1979.00,1.1568
1978.00,1.1569
1977.00,1.1569
1976.00,1.1570
1975.00,1.1569
1974.00,1.1569
1973.00,1.1569
1972.00,1.1568
1971.00,1.1567
1970.00,1.1565
1969.00,1.1565
1968.00,1.1565
1967.00,1.1564
1966.00,1.1564
1965.00,1.1564
1964.00,1.1564
1963.00,1.1564
1962.00,1.1565
1961.00,1.1565
1960.00,1.1565
1959.00,1.1566
1958.00,1.1566
1957.00,1.1566
1956.00,1.1565
1955.00,1.1563
1954.00,1.1561
1953.00,1.1561
1952.00,1.1560
1951.00,1.1560
1950.00,1.1561
1949.00,1.1562
1948.00,1.1563
1947.00,1.1563
1946.00,1.1564
1945.00,1.1565
1944.00,1.1566
1943.00,1.1566
1942.00,1.1565
1941.00,1.1563
1940.00,1.1561
1939.00,1.1559
1938.00,1.1559
1937.00,1.1559
1936.00,1.1560
1935.00,1.1561
1934.00,1.1562
1933.00,1.1563
1932.00,1.1564
1931.00,1.1564
1930.00,1.1564
1929.00,1.1564
1928.00,1.1564
1927.00,1.1563
1926.00,1.1562
1925.00,1.1561
1924.00,1.1561
1923.00,1.1561
1922.00,1.1560
1921.00,1.1561
1920.00,1.1562
1919.00,1.1564
1918.00,1.1565
1917.00,1.1565
1916.00,1.1565
1915.00,1.1565
1914.00,1.1565
1913.00,1.1565
1912.00,1.1565
1911.00,1.1564
1910.00,1.1563
1909.00,1.1563
1908.00,1.1563
1907.00,1.1563
1906.00,1.1562
1905.00,1.1563
1904.00,1.1565
1903.00,1.1566
1902.00,1.1566
1901.00,1.1567
1900.00,1.1568
1899.00,1.1567
1898.00,1.1566
1897.00,1.1566
1896.00,1.1566
1895.00,1.1565
1894.00,1.1563
1893.00,1.1562
1892.00,1.1564
1891.00,1.1566
1890.00,1.1567
1889.00,1.1567
1888.00,1.1568
1887.00,1.1568
1886.00,1.1568
1885.00,1.1569
1884.00,1.1570
1883.00,1.1570
1882.00,1.1568
1881.00,1.1567
1880.00,1.1567
1879.00,1.1566
1878.00,1.1565
1877.00,1.1566
1876.00,1.1567
1875.00,1.1568
1874.00,1.1568
1873.00,1.1569
1872.00,1.1572
1871.00,1.1574
1870.00,1.1576
1869.00,1.1577
1868.00,1.1576
1867.00,1.1573
1866.00,1.1570
1865.00,1.1568
1864.00,1.1568
1863.00,1.1568
1862.00,1.1567
1861.00,1.1568
1860.00,1.1570
1859.00,1.1571
1858.00,1.1571
1857.00,1.1572
1856.00,1.1574
1855.00,1.1575
1854.00,1.1575
1853.00,1.1574
1852.00,1.1574
1851.00,1.1572
1850.00,1.1571
1849.00,1.1570
1848.00,1.1571
1847.00,1.1572
1846.00,1.1575
1845.00,1.1579
1844.00,1.1580
1843.00,1.1578
1842.00,1.1576
1841.00,1.1575
1840.00,1.1576
1839.00,1.1577
1838.00,1.1578
1837.00,1.1578
1836.00,1.1578
1835.00,1.1576
1834.00,1.1575
1833.00,1.1575
1832.00,1.1577
1831.00,1.1579
1830.00,1.1580
1829.00,1.1580
1828.00,1.1580
1827.00,1.1580
1826.00,1.1581
1825.00,1.1582
1824.00,1.1583
1823.00,1.1583
1822.00,1.1582
1821.00,1.1581
1820.00,1.1582
1819.00,1.1582
1818.00,1.1582
1817.00,1.1582
1816.00,1.1583
1815.00,1.1584
1814.00,1.1585
1813.00,1.1586
1812.00,1.1588
1811.00,1.1590
1810.00,1.1589
1809.00,1.1589
1808.00,1.1591
1807.00,1.1590
1806.00,1.1589
1805.00,1.1587
1804.00,1.1588
1803.00,1.1587
1802.00,1.1586
1801.00,1.1586
1800.00,1.1587
1799.00,1.1588
1798.00,1.1589
1797.00,1.1591
1796.00,1.1593
1795.00,1.1594
1794.00,1.1594
1793.00,1.1595
1792.00,1.1596
1791.00,1.1595
1790.00,1.1593
1789.00,1.1592
1788.00,1.1593
1787.00,1.1593
1786.00,1.1593
1785.00,1.1594
1784.00,1.1597
1783.00,1.1599
1782.00,1.1600
1781.00,1.1601
1780.00,1.1602
1779.00,1.1603
1778.00,1.1603
1777.00,1.1603
1776.00,1.1603
1775.00,1.1603
1774.00,1.1603
1773.00,1.1602
1772.00,1.1602
1771.00,1.1602
1770.00,1.1603
1769.00,1.1604
1768.00,1.1606
1767.00,1.1607
1766.00,1.1608
1765.00,1.1610
1764.00,1.1612
1763.00,1.1614
1762.00,1.1615
1761.00,1.1614
1760.00,1.1613
1759.00,1.1613
1758.00,1.1614
1757.00,1.1613
1756.00,1.1612
1755.00,1.1612
1754.00,1.1612
1753.00,1.1612
1752.00,1.1612
1751.00,1.1614
1750.00,1.1616
1749.00,1.1619
1748.00,1.1620
1747.00,1.1621
1746.00,1.1623
1745.00,1.1623
1744.00,1.1622
1743.00,1.1622
1742.00,1.1621
1741.00,1.1621
1740.00,1.1622
1739.00,1.1622
1738.00,1.1623
1737.00,1.1623
1736.00,1.1623
1735.00,1.1623
1734.00,1.1623
1733.00,1.1625
1732.00,1.1628
1731.00,1.1630
1730.00,1.1632
1729.00,1.1633
1728.00,1.1634
1727.00,1.1634
1726.00,1.1634
1725.00,1.1635
1724.00,1.1637
1723.00,1.1638
1722.00,1.1636
1721.00,1.1636
1720.00,1.1639
1719.00,1.1640
1718.00,1.1638
1717.00,1.1638
1716.00,1.1642
1715.00,1.1643
1714.00,1.1639
1713.00,1.1637
1712.00,1.1640
1711.00,1.1642
1710.00,1.1640
1709.00,1.1640
1708.00,1.1643
1707.00,1.1645
1706.00,1.1643
1705.00,1.1643
1704.00,1.1645
1703.00,1.1645
1702.00,1.1643
1701.00,1.1642
1700.00,1.1643
1699.00,1.1643
1698.00,1.1642
1697.00,1.1645
1696.00,1.1650
1695.00,1.1653
1694.00,1.1652
1693.00,1.1651
1692.00,1.1652
1691.00,1.1653
1690.00,1.1653
1689.00,1.1652
1688.00,1.1651
1687.00,1.1652
1686.00,1.1655
1685.00,1.1658
1684.00,1.1659
1683.00,1.1658
1682.00,1.1657
1681.00,1.1657
1680.00,1.1655
1679.00,1.1654
1678.00,1.1656
1677.00,1.1656
1676.00,1.1655
1675.00,1.1654
1674.00,1.1656
1673.00,1.1657
1672.00,1.1656
1671.00,1.1655
1670.00,1.1657
1669.00,1.1659
1668.00,1.1659
1667.00,1.1659
1666.00,1.1661
1665.00,1.1663
1664.00,1.1664
1663.00,1.1663
1662.00,1.1663
1661.00,1.1664
1660.00,1.1663
1659.00,1.1662
1658.00,1.1663
1657.00,1.1664
1656.00,1.1664
1655.00,1.1664
1654.00,1.1666
1653.00,1.1666
1652.00,1.1667
1651.00,1.1668
1650.00,1.1668
1649.00,1.1667
1648.00,1.1667
1647.00,1.1668
1646.00,1.1668
1645.00,1.1668
1644.00,1.1668
1643.00,1.1667
1642.00,1.1667
1641.00,1.1666
1640.00,1.1665
1639.00,1.1665
1638.00,1.1666
1637.00,1.1666
1636.00,1.1667
1635.00,1.1668
1634.00,1.1669
1633.00,1.1670
1632.00,1.1670
1631.00,1.1669
1630.00,1.1668
1629.00,1.1668
1628.00,1.1668
1627.00,1.1668
1626.00,1.1668
1625.00,1.1669
1624.00,1.1668
1623.00,1.1668
1622.00,1.1669
1621.00,1.1671
1620.00,1.1671
1619.00,1.1671
1618.00,1.1673
1617.00,1.1675
1616.00,1.1674
1615.00,1.1672
1614.00,1.1672
1613.00,1.1671
1612.00,1.1670
1611.00,1.1669
1610.00,1.1671
1609.00,1.1673
1608.00,1.1675
1607.00,1.1676
1606.00,1.1680
1605.00,1.1683
1604.00,1.1683
1603.00,1.1684
1602.00,1.1685
1601.00,1.1685
1600.00,1.1683
1599.00,1.1682
1598.00,1.1682
1597.00,1.1682
1596.00,1.1681
1595.00,1.1680
1594.00,1.1681
1593.00,1.1682
1592.00,1.1683
1591.00,1.1683
1590.00,1.1685
1589.00,1.1687
1588.00,1.1687
1587.00,1.1686
1586.00,1.1687
1585.00,1.1687
1584.00,1.1685
1583.00,1.1683
1582.00,1.1684
1581.00,1.1685
1580.00,1.1684
1579.00,1.1684
1578.00,1.1686
1577.00,1.1688
1576.00,1.1688
1575.00,1.1688
1574.00,1.1690
1573.00,1.1691
1572.00,1.1689
1571.00,1.1688
1570.00,1.1688
1569.00,1.1687
1568.00,1.1683
1567.00,1.1681
1566.00,1.1682
1565.00,1.1683
1564.00,1.1682
1563.00,1.1682
1562.00,1.1687
1561.00,1.1692
1560.00,1.1691
1559.00,1.1690
1558.00,1.1692
1557.00,1.1695
1556.00,1.1693
1555.00,1.1691
1554.00,1.1689
1553.00,1.1687
1552.00,1.1684
1551.00,1.1683
1550.00,1.1684
1549.00,1.1685
1548.00,1.1684
1547.00,1.1684
1546.00,1.1687
1545.00,1.1692
1544.00,1.1695
1543.00,1.1697
1542.00,1.1697
1541.00,1.1696
1540.00,1.1693
1539.00,1.1690
1538.00,1.1689
1537.00,1.1690
1536.00,1.1690
1535.00,1.1689
1534.00,1.1689
1533.00,1.1690
1532.00,1.1691
1531.00,1.1692
1530.00,1.1693
1529.00,1.1696
1528.00,1.1698
1527.00,1.1699
1526.00,1.1697
1525.00,1.1694
1524.00,1.1691
1523.00,1.1688
1522.00,1.1687
1521.00,1.1686
1520.00,1.1686
1519.00,1.1686
1518.00,1.1685
1517.00,1.1685
1516.00,1.1687
1515.00,1.1689
1514.00,1.1691
1513.00,1.1692
1512.00,1.1695
1511.00,1.1696
1510.00,1.1693
1509.00,1.1688
1508.00,1.1684
1507.00,1.1681
1506.00,1.1677
1505.00,1.1675
1504.00,1.1675
1503.00,1.1677
1502.00,1.1677
1501.00,1.1675
1500.00,1.1676
1499.00,1.1677
1498.00,1.1678
1497.00,1.1678
1496.00,1.1682
1495.00,1.1687
1494.00,1.1691
1493.00,1.1694
1492.00,1.1696
1491.00,1.1696
1490.00,1.1695
1489.00,1.1694
1488.00,1.1694
1487.00,1.1694
1486.00,1.1693
1485.00,1.1695
1484.00,1.1699
1483.00,1.1700
1482.00,1.1699
1481.00,1.1698
1480.00,1.1697
1479.00,1.1693
1478.00,1.1689
1477.00,1.1686
1476.00,1.1684
1475.00,1.1680
1474.00,1.1676
1473.00,1.1675
1472.00,1.1676
1471.00,1.1680
1470.00,1.1683
1469.00,1.1687
1468.00,1.1691
1467.00,1.1693
1466.00,1.1692
1465.00,1.1689
1464.00,1.1686
1463.00,1.1684
1462.00,1.1681
1461.00,1.1678
1460.00,1.1676
1459.00,1.1675
1458.00,1.1674
1457.00,1.1671
1456.00,1.1669
1455.00,1.1671
1454.00,1.1677
1453.00,1.1682
1452.00,1.1687
1451.00,1.1691
1450.00,1.1694
1449.00,1.1693
1448.00,1.1691
1447.00,1.1690
1446.00,1.1687
1445.00,1.1682
1444.00,1.1678
1443.00,1.1677
1442.00,1.1678
1441.00,1.1678
1440.00,1.1680
1439.00,1.1684
1438.00,1.1688
1437.00,1.1687
1436.00,1.1686
1435.00,1.1687
1434.00,1.1687
1433.00,1.1682
1432.00,1.1678
1431.00,1.1676
1430.00,1.1676
1429.00,1.1673
1428.00,1.1671
1427.00,1.1672
1426.00,1.1675
1425.00,1.1675
1424.00,1.1676
1423.00,1.1680
1422.00,1.1686
1421.00,1.1688
1420.00,1.1688
1419.00,1.1688
1418.00,1.1684
1417.00,1.1678
1416.00,1.1671
1415.00,1.1670
1414.00,1.1670
1413.00,1.1668
1412.00,1.1666
1411.00,1.1667
1410.00,1.1670
1409.00,1.1672
1408.00,1.1674
1407.00,1.1676
1406.00,1.1679
1405.00,1.1680
1404.00,1.1678
1403.00,1.1678
1402.00,1.1678
1401.00,1.1675
1400.00,1.1672
1399.00,1.1670
1398.00,1.1670
1397.00,1.1669
1396.00,1.1669
1395.00,1.1671
1394.00,1.1674
1393.00,1.1675
1392.00,1.1674
1391.00,1.1675
1390.00,1.1676
1389.00,1.1675
1388.00,1.1673
1387.00,1.1669
1386.00,1.1666
1385.00,1.1664
1384.00,1.1662
1383.00,1.1661
1382.00,1.1661
1381.00,1.1662
1380.00,1.1662
1379.00,1.1664
1378.00,1.1667
1377.00,1.1670
1376.00,1.1671
1375.00,1.1672
1374.00,1.1671
1373.00,1.1669
1372.00,1.1666
1371.00,1.1663
1370.00,1.1660
1369.00,1.1658
1368.00,1.1656
1367.00,1.1655
1366.00,1.1656
1365.00,1.1658
1364.00,1.1660
1363.00,1.1663
1362.00,1.1666
1361.00,1.1667
1360.00,1.1666
1359.00,1.1664
1358.00,1.1662
1357.00,1.1660
1356.00,1.1656
1355.00,1.1653
1354.00,1.1651
1353.00,1.1650
1352.00,1.1649
1351.00,1.1649
1350.00,1.1651
1349.00,1.1654
1348.00,1.1656
1347.00,1.1659
1346.00,1.1660
1345.00,1.1661
1344.00,1.1659
1343.00,1.1658
1342.00,1.1657
1341.00,1.1655
1340.00,1.1653
1339.00,1.1652
1338.00,1.1651
1337.00,1.1649
1336.00,1.1648
1335.00,1.1648
1334.00,1.1649
1333.00,1.1651
1332.00,1.1653
1331.00,1.1655
1330.00,1.1656
1329.00,1.1655
1328.00,1.1653
1327.00,1.1651
1326.00,1.1650
1325.00,1.1649
1324.00,1.1646
1323.00,1.1645
1322.00,1.1645
1321.00,1.1645
1320.00,1.1645
1319.00,1.1646
1318.00,1.1649
1317.00,1.1651
1316.00,1.1651
1315.00,1.1651
1314.00,1.1651
1313.00,1.1650
1312.00,1.1648
1311.00,1.1647
1310.00,1.1646
1309.00,1.1644
1308.00,1.1643
1307.00,1.1642
1306.00,1.1642
1305.00,1.1642
1304.00,1.1642
1303.00,1.1643
1302.00,1.1644
1301.00,1.1645
1300.00,1.1645
1299.00,1.1644
1298.00,1.1643
1297.00,1.1640
1296.00,1.1639
1295.00,1.1638
1294.00,1.1639
1293.00,1.1638
1292.00,1.1637
1291.00,1.1637
1290.00,1.1638
1289.00,1.1640
1288.00,1.1640
1287.00,1.1641
1286.00,1.1642
1285.00,1.1641
1284.00,1.1639
1283.00,1.1637
1282.00,1.1636
1281.00,1.1635
1280.00,1.1634
1279.00,1.1633
1278.00,1.1633
1277.00,1.1633
1276.00,1.1633
1275.00,1.1634
1274.00,1.1635
1273.00,1.1636
1272.00,1.1636
1271.00,1.1635
1270.00,1.1635
1269.00,1.1632
1268.00,1.1629
1267.00,1.1626
1266.00,1.1624
1265.00,1.1625
1264.00,1.1627
1263.00,1.1630
1262.00,1.1634
1261.00,1.1637
1260.00,1.1640
1259.00,1.1643
1258.00,1.1647
1257.00,1.1648
1256.00,1.1647
1255.00,1.1644
1254.00,1.1640
1253.00,1.1636
1252.00,1.1632
1251.00,1.1629
1250.00,1.1629
1249.00,1.1629
1248.00,1.1630
1247.00,1.1633
1246.00,1.1636
1245.00,1.1638
1244.00,1.1640
1243.00,1.1641
1242.00,1.1642
1241.00,1.1643
1240.00,1.1641
1239.00,1.1639
1238.00,1.1635
1237.00,1.1631
1236.00,1.1628
1235.00,1.1626
1234.00,1.1627
1233.00,1.1629
1232.00,1.1631
1231.00,1.1633
1230.00,1.1636
1229.00,1.1639
1228.00,1.1642
1227.00,1.1645
1226.00,1.1647
1225.00,1.1645
1224.00,1.1640
1223.00,1.1634
1222.00,1.1630
1221.00,1.1626
1220.00,1.1623
1219.00,1.1623
1218.00,1.1625
1217.00,1.1627
1216.00,1.1629
1215.00,1.1632
1214.00,1.1636
1213.00,1.1640
1212.00,1.1642
1211.00,1.1643
1210.00,1.1641
1209.00,1.1638
1208.00,1.1632
1207.00,1.1626
1206.00,1.1621
1205.00,1.1619
1204.00,1.1618
1203.00,1.1619
1202.00,1.1622
1201.00,1.1624
1200.00,1.1628
1199.00,1.1633
1198.00,1.1639
1197.00,1.1643
1196.00,1.1645
1195.00,1.1644
1194.00,1.1640
1193.00,1.1634
1192.00,1.1628
1191.00,1.1623
1190.00,1.1620
1189.00,1.1620
1188.00,1.1620
1187.00,1.1623
1186.00,1.1628
1185.00,1.1633
1184.00,1.1637
1183.00,1.1642
1182.00,1.1647
1181.00,1.1651
1180.00,1.1651
1179.00,1.1647
1178.00,1.1641
1177.00,1.1634
1176.00,1.1626
1175.00,1.1621
1174.00,1.1620
1173.00,1.1621
1172.00,1.1624
1171.00,1.1627
1170.00,1.1633
1169.00,1.1639
1168.00,1.1647
1167.00,1.1654
1166.00,1.1658
1165.00,1.1658
1164.00,1.1653
1163.00,1.1646
1162.00,1.1638
1161.00,1.1632
1160.00,1.1627
1159.00,1.1625
1158.00,1.1627
1157.00,1.1630
1156.00,1.1634
1155.00,1.1641
1154.00,1.1649
1153.00,1.1655
1152.00,1.1660
1151.00,1.1664
1150.00,1.1665
1149.00,1.1660
1148.00,1.1649
1147.00,1.1637
1146.00,1.1627
1145.00,1.1620
1144.00,1.1617
1143.00,1.1617
1142.00,1.1621
1141.00,1.1626
1140.00,1.1632
1139.00,1.1639
1138.00,1.1647
1137.00,1.1655
1136.00,1.1660
1135.00,1.1659
1134.00,1.1654
1133.00,1.1644
1132.00,1.1632
1131.00,1.1622
1130.00,1.1615
1129.00,1.1611
1128.00,1.1610
1127.00,1.1612
1126.00,1.1617
1125.00,1.1624
1124.00,1.1631
1123.00,1.1640
1122.00,1.1648
1121.00,1.1652
1120.00,1.1651
1119.00,1.1645
1118.00,1.1635
1117.00,1.1620
1116.00,1.1604
1115.00,1.1591
1114.00,1.1586
1113.00,1.1584
1112.00,1.1586
1111.00,1.1590
1110.00,1.1598
1109.00,1.1608
1108.00,1.1617
1107.00,1.1628
1106.00,1.1637
1105.00,1.1640
1104.00,1.1634
1103.00,1.1621
1102.00,1.1604
1101.00,1.1590
1100.00,1.1579
1099.00,1.1572
1098.00,1.1569
1097.00,1.1569
1096.00,1.1572
1095.00,1.1580
1094.00,1.1591
1093.00,1.1603
1092.00,1.1613
1091.00,1.1619
1090.00,1.1621
1089.00,1.1614
1088.00,1.1601
1087.00,1.1584
1086.00,1.1565
1085.00,1.1547
1084.00,1.1533
1083.00,1.1528
1082.00,1.1529
1081.00,1.1532
1080.00,1.1536
1079.00,1.1545
1078.00,1.1559
1077.00,1.1572
1076.00,1.1580
1075.00,1.1583
1074.00,1.1580
1073.00,1.1568
1072.00,1.1546
1071.00,1.1522
1070.00,1.1503
1069.00,1.1491
1068.00,1.1483
1067.00,1.1479
1066.00,1.1479
1065.00,1.1484
1064.00,1.1492
1063.00,1.1504
1062.00,1.1516
1061.00,1.1523
1060.00,1.1523
1059.00,1.1516
1058.00,1.1502
1057.00,1.1480
1056.00,1.1456
1055.00,1.1434
1054.00,1.1416
1053.00,1.1403
1052.00,1.1395
1051.00,1.1396
1050.00,1.1404
1049.00,1.1416
1048.00,1.1429
1047.00,1.1445
1046.00,1.1459
1045.00,1.1463
1044.00,1.1456
1043.00,1.1440
1042.00,1.1421
1041.00,1.1398
1040.00,1.1373
1039.00,1.1354
1038.00,1.1343
1037.00,1.1338
1036.00,1.1338
1035.00,1.1342
1034.00,1.1353
1033.00,1.1369
1032.00,1.1384
1031.00,1.1395
1030.00,1.1400
1029.00,1.1396
1028.00,1.1384
1027.00,1.1366
1026.00,1.1342
1025.00,1.1317
1024.00,1.1295
1023.00,1.1280
1022.00,1.1272
1021.00,1.1268
1020.00,1.1270
1019.00,1.1278
1018.00,1.1293
1017.00,1.1309
1016.00,1.1323
1015.00,1.1334
1014.00,1.1336
1013.00,1.1325
1012.00,1.1303
1011.00,1.1280
1010.00,1.1260
1009.00,1.1241
1008.00,1.1223
1007.00,1.1212
1006.00,1.1212
1005.00,1.1219
1004.00,1.1229
1003.00,1.1243
1002.00,1.1263
1001.00,1.1281
1000.00,1.1291
