PE IR       SUBTECH     SPECTRUM    ASCII       PEDS        4.00        
   -1
TE110A_046_115K_SB.ASC
20/05/14
13:19:58.00
20/05/14
13:19:58.00
Administrator
TE110A.Thursday, May 14 2020, 015.
1000.000000
#HDR
-1
-1
#GR
cm-1
EGY
1.0
0.0
6000.000000
-2.000000
2501
8
5.972878
0.610105
#DATA
6000.000000	0.919749
5998.000000	0.920628
5996.000000	0.922933
5994.000000	0.925963
5992.000000	0.927720
5990.000000	0.929081
5988.000000	0.930984
5986.000000	0.932705
5984.000000	0.933772
5982.000000	0.935157
5980.000000	0.937063
5978.000000	0.939218
5976.000000	0.940937
5974.000000	0.943781
5972.000000	0.947024
5970.000000	0.948633
5968.000000	0.948749
5966.000000	0.949743
5964.000000	0.953208
5962.000000	0.956114
5960.000000	0.957250
5958.000000	0.957585
5956.000000	0.959019
5954.000000	0.961924
5952.000000	0.965175
5950.000000	0.967979
5948.000000	0.969356
5946.000000	0.970439
5944.000000	0.972387
5942.000000	0.975238
5940.000000	0.977501
5938.000000	0.978721
5936.000000	0.980174
5934.000000	0.983011
5932.000000	0.985467
5930.000000	0.987419
5928.000000	0.989719
5926.000000	0.991467
5924.000000	0.992805
5922.000000	0.993703
5920.000000	0.995631
5918.000000	0.998707
5916.000000	1.001579
5914.000000	1.003487
5912.000000	1.004846
5910.000000	1.006746
5908.000000	1.009535
5906.000000	1.012431
5904.000000	1.014326
5902.000000	1.015552
5900.000000	1.017639
5898.000000	1.020339
5896.000000	1.022429
5894.000000	1.024592
5892.000000	1.027480
5890.000000	1.030664
5888.000000	1.032666
5886.000000	1.033241
5884.000000	1.034288
5882.000000	1.036629
5880.000000	1.039107
5878.000000	1.041479
5876.000000	1.043117
5874.000000	1.045232
5872.000000	1.047845
5870.000000	1.049875
5868.000000	1.050684
5866.000000	1.051845
5864.000000	1.054534
5862.000000	1.058121
5860.000000	1.061184
5858.000000	1.062788
5856.000000	1.064390
5854.000000	1.066695
5852.000000	1.069007
5850.000000	1.071551
5848.000000	1.073209
5846.000000	1.075173
5844.000000	1.077357
5842.000000	1.079177
5840.000000	1.081533
5838.000000	1.084114
5836.000000	1.086751
5834.000000	1.089460
5832.000000	1.092230
5830.000000	1.095255
5828.000000	1.098180
5826.000000	1.100477
5824.000000	1.102313
5822.000000	1.103837
5820.000000	1.106479
5818.000000	1.109173
5816.000000	1.112049
5814.000000	1.113958
5812.000000	1.115882
5810.000000	1.117889
5808.000000	1.119778
5806.000000	1.121559
5804.000000	1.124042
5802.000000	1.126632
5800.000000	1.129399
5798.000000	1.132059
5796.000000	1.134062
5794.000000	1.135956
5792.000000	1.138064
5790.000000	1.141224
5788.000000	1.143594
5786.000000	1.144986
5784.000000	1.146509
5782.000000	1.149709
5780.000000	1.153221
5778.000000	1.155411
5776.000000	1.156792
5774.000000	1.158540
5772.000000	1.160715
5770.000000	1.162629
5768.000000	1.165442
5766.000000	1.169357
5764.000000	1.173386
5762.000000	1.176399
5760.000000	1.177503
5758.000000	1.179060
5756.000000	1.181389
5754.000000	1.184745
5752.000000	1.187432
5750.000000	1.189171
5748.000000	1.191225
5746.000000	1.193236
5744.000000	1.195963
5742.000000	1.198849
5740.000000	1.201209
5738.000000	1.203218
5736.000000	1.204729
5734.000000	1.206652
5732.000000	1.209216
5730.000000	1.211286
5728.000000	1.213999
5726.000000	1.217128
5724.000000	1.220356
5722.000000	1.223243
5720.000000	1.225367
5718.000000	1.227325
5716.000000	1.229410
5714.000000	1.232491
5712.000000	1.235963
5710.000000	1.238802
5708.000000	1.240414
5706.000000	1.242099
5704.000000	1.244495
5702.000000	1.247378
5700.000000	1.249746
5698.000000	1.252331
5696.000000	1.254504
5694.000000	1.256421
5692.000000	1.258384
5690.000000	1.260448
5688.000000	1.263788
5686.000000	1.267391
5684.000000	1.270312
5682.000000	1.272605
5680.000000	1.274614
5678.000000	1.276679
5676.000000	1.279668
5674.000000	1.282613
5672.000000	1.285985
5670.000000	1.289224
5668.000000	1.292116
5666.000000	1.294531
5664.000000	1.296434
5662.000000	1.298915
5660.000000	1.302092
5658.000000	1.304643
5656.000000	1.307496
5654.000000	1.310998
5652.000000	1.314388
5650.000000	1.316621
5648.000000	1.317579
5646.000000	1.319743
5644.000000	1.323007
5642.000000	1.326011
5640.000000	1.328618
5638.000000	1.330607
5636.000000	1.333162
5634.000000	1.335752
5632.000000	1.337949
5630.000000	1.340989
5628.000000	1.343724
5626.000000	1.345281
5624.000000	1.347474
5622.000000	1.350925
5620.000000	1.355020
5618.000000	1.356778
5616.000000	1.357368
5614.000000	1.359627
5612.000000	1.362808
5610.000000	1.366167
5608.000000	1.369319
5606.000000	1.372098
5604.000000	1.375036
5602.000000	1.377358
5600.000000	1.379716
5598.000000	1.382652
5596.000000	1.385108
5594.000000	1.388522
5592.000000	1.391518
5590.000000	1.394094
5588.000000	1.396398
5586.000000	1.399436
5584.000000	1.402638
5582.000000	1.405294
5580.000000	1.408099
5578.000000	1.411126
5576.000000	1.413786
5574.000000	1.415667
5572.000000	1.418458
5570.000000	1.421888
5568.000000	1.424696
5566.000000	1.427366
5564.000000	1.430439
5562.000000	1.433465
5560.000000	1.435489
5558.000000	1.437276
5556.000000	1.439766
5554.000000	1.442928
5552.000000	1.446145
5550.000000	1.449095
5548.000000	1.451660
5546.000000	1.453876
5544.000000	1.456325
5542.000000	1.459214
5540.000000	1.461983
5538.000000	1.464466
5536.000000	1.467162
5534.000000	1.470470
5532.000000	1.474215
5530.000000	1.478313
5528.000000	1.481472
5526.000000	1.483877
5524.000000	1.485547
5522.000000	1.487519
5520.000000	1.489563
5518.000000	1.492149
5516.000000	1.494721
5514.000000	1.496917
5512.000000	1.500322
5510.000000	1.503564
5508.000000	1.506393
5506.000000	1.507810
5504.000000	1.510573
5502.000000	1.514478
5500.000000	1.517770
5498.000000	1.520836
5496.000000	1.523957
5494.000000	1.526349
5492.000000	1.528083
5490.000000	1.530612
5488.000000	1.533985
5486.000000	1.536732
5484.000000	1.539366
5482.000000	1.542827
5480.000000	1.545638
5478.000000	1.547954
5476.000000	1.549733
5474.000000	1.552462
5472.000000	1.555558
5470.000000	1.559288
5468.000000	1.563470
5466.000000	1.566120
5464.000000	1.568029
5462.000000	1.569722
5460.000000	1.572370
5458.000000	1.576120
5456.000000	1.579853
5454.000000	1.583689
5452.000000	1.586912
5450.000000	1.589251
5448.000000	1.590602
5446.000000	1.591991
5444.000000	1.594390
5442.000000	1.596957
5440.000000	1.599791
5438.000000	1.602670
5436.000000	1.606637
5434.000000	1.610626
5432.000000	1.614158
5430.000000	1.615688
5428.000000	1.616844
5426.000000	1.618415
5424.000000	1.621151
5422.000000	1.625891
5420.000000	1.631615
5418.000000	1.635665
5416.000000	1.636936
5414.000000	1.637537
5412.000000	1.639761
5410.000000	1.642158
5408.000000	1.645202
5406.000000	1.649241
5404.000000	1.654182
5402.000000	1.658257
5400.000000	1.661259
5398.000000	1.663598
5396.000000	1.665311
5394.000000	1.667120
5392.000000	1.669844
5390.000000	1.673575
5388.000000	1.677413
5386.000000	1.680836
5384.000000	1.684195
5382.000000	1.686210
5380.000000	1.688121
5378.000000	1.690420
5376.000000	1.693442
5374.000000	1.696486
5372.000000	1.700593
5370.000000	1.705725
5368.000000	1.709394
5366.000000	1.711716
5364.000000	1.713953
5362.000000	1.716780
5360.000000	1.719415
5358.000000	1.721939
5356.000000	1.724459
5354.000000	1.726534
5352.000000	1.728281
5350.000000	1.731125
5348.000000	1.734218
5346.000000	1.736771
5344.000000	1.739289
5342.000000	1.742718
5340.000000	1.746763
5338.000000	1.749384
5336.000000	1.751633
5334.000000	1.755572
5332.000000	1.760107
5330.000000	1.763022
5328.000000	1.763673
5326.000000	1.765154
5324.000000	1.768866
5322.000000	1.772846
5320.000000	1.776203
5318.000000	1.779112
5316.000000	1.782732
5314.000000	1.786712
5312.000000	1.789696
5310.000000	1.791343
5308.000000	1.793228
5306.000000	1.796287
5304.000000	1.800230
5302.000000	1.803207
5300.000000	1.805916
5298.000000	1.808929
5296.000000	1.812370
5294.000000	1.815721
5292.000000	1.818000
5290.000000	1.819632
5288.000000	1.821955
5286.000000	1.825769
5284.000000	1.829797
5282.000000	1.833341
5280.000000	1.836927
5278.000000	1.840423
5276.000000	1.844270
5274.000000	1.848220
5272.000000	1.851356
5270.000000	1.852768
5268.000000	1.853731
5266.000000	1.855594
5264.000000	1.857654
5262.000000	1.860001
5260.000000	1.863697
5258.000000	1.868438
5256.000000	1.872615
5254.000000	1.875470
5252.000000	1.877565
5250.000000	1.879396
5248.000000	1.881024
5246.000000	1.883631
5244.000000	1.887564
5242.000000	1.891770
5240.000000	1.894845
5238.000000	1.897568
5236.000000	1.901709
5234.000000	1.906378
5232.000000	1.909376
5230.000000	1.911147
5228.000000	1.913551
5226.000000	1.917120
5224.000000	1.919832
5222.000000	1.922174
5220.000000	1.924631
5218.000000	1.928480
5216.000000	1.933363
5214.000000	1.937364
5212.000000	1.939534
5210.000000	1.941444
5208.000000	1.944517
5206.000000	1.946880
5204.000000	1.948866
5202.000000	1.952789
5200.000000	1.958475
5198.000000	1.962482
5196.000000	1.964116
5194.000000	1.966015
5192.000000	1.969819
5190.000000	1.973852
5188.000000	1.976883
5186.000000	1.979198
5184.000000	1.982294
5182.000000	1.986446
5180.000000	1.990616
5178.000000	1.993524
5176.000000	1.995798
5174.000000	1.999186
5172.000000	2.003561
5170.000000	2.006869
5168.000000	2.008615
5166.000000	2.010484
5164.000000	2.014179
5162.000000	2.018134
5160.000000	2.020818
5158.000000	2.022745
5156.000000	2.025924
5154.000000	2.029984
5152.000000	2.033438
5150.000000	2.035788
5148.000000	2.038217
5146.000000	2.042067
5144.000000	2.046342
5142.000000	2.049515
5140.000000	2.052325
5138.000000	2.055630
5136.000000	2.058933
5134.000000	2.061510
5132.000000	2.064406
5130.000000	2.066976
5128.000000	2.068834
5126.000000	2.071288
5124.000000	2.075464
5122.000000	2.080168
5120.000000	2.083269
5118.000000	2.085217
5116.000000	2.087790
5114.000000	2.091652
5112.000000	2.095769
5110.000000	2.099146
5108.000000	2.101573
5106.000000	2.103879
5104.000000	2.106715
5102.000000	2.110421
5100.000000	2.114691
5098.000000	2.118583
5096.000000	2.121052
5094.000000	2.122903
5092.000000	2.125752
5090.000000	2.129294
5088.000000	2.132672
5086.000000	2.136458
5084.000000	2.140205
5082.000000	2.142939
5080.000000	2.144677
5078.000000	2.147557
5076.000000	2.151724
5074.000000	2.155757
5072.000000	2.159243
5070.000000	2.161940
5068.000000	2.164928
5066.000000	2.167787
5064.000000	2.171450
5062.000000	2.174634
5060.000000	2.177537
5058.000000	2.181126
5056.000000	2.184867
5054.000000	2.187799
5052.000000	2.190650
5050.000000	2.194428
5048.000000	2.197467
5046.000000	2.199231
5044.000000	2.201423
5042.000000	2.204739
5040.000000	2.208621
5038.000000	2.212329
5036.000000	2.215078
5034.000000	2.216818
5032.000000	2.219812
5030.000000	2.224668
5028.000000	2.229607
5026.000000	2.232808
5024.000000	2.235074
5022.000000	2.237862
5020.000000	2.241597
5018.000000	2.245559
5016.000000	2.249150
5014.000000	2.252187
5012.000000	2.255298
5010.000000	2.258137
5008.000000	2.261151
5006.000000	2.264946
5004.000000	2.268857
5002.000000	2.272390
5000.000000	2.275587
4998.000000	2.278686
4996.000000	2.281662
4994.000000	2.284648
4992.000000	2.287015
4990.000000	2.289136
4988.000000	2.292382
4986.000000	2.295934
4984.000000	2.298962
4982.000000	2.302178
4980.000000	2.306530
4978.000000	2.310410
4976.000000	2.313605
4974.000000	2.316048
4972.000000	2.318853
4970.000000	2.321606
4968.000000	2.325093
4966.000000	2.328914
4964.000000	2.333045
4962.000000	2.336672
4960.000000	2.339787
4958.000000	2.342567
4956.000000	2.345653
4954.000000	2.348770
4952.000000	2.351581
4950.000000	2.354621
4948.000000	2.357977
4946.000000	2.360707
4944.000000	2.363298
4942.000000	2.366989
4940.000000	2.371559
4938.000000	2.376200
4936.000000	2.380512
4934.000000	2.384147
4932.000000	2.387256
4930.000000	2.389852
4928.000000	2.391832
4926.000000	2.393548
4924.000000	2.396322
4922.000000	2.400178
4920.000000	2.403956
4918.000000	2.407275
4916.000000	2.410679
4914.000000	2.414644
4912.000000	2.418161
4910.000000	2.421051
4908.000000	2.424373
4906.000000	2.428009
4904.000000	2.431212
4902.000000	2.433954
4900.000000	2.437275
4898.000000	2.440719
4896.000000	2.444206
4894.000000	2.447173
4892.000000	2.449929
4890.000000	2.453127
4888.000000	2.457506
4886.000000	2.461861
4884.000000	2.465206
4882.000000	2.467878
4880.000000	2.471580
4878.000000	2.476263
4876.000000	2.480752
4874.000000	2.482649
4872.000000	2.483317
4870.000000	2.485864
4868.000000	2.490091
4866.000000	2.493623
4864.000000	2.497048
4862.000000	2.501418
4860.000000	2.504711
4858.000000	2.506473
4856.000000	2.508784
4854.000000	2.512643
4852.000000	2.516830
4850.000000	2.520435
4848.000000	2.523855
4846.000000	2.527372
4844.000000	2.530628
4842.000000	2.534204
4840.000000	2.537827
4838.000000	2.540587
4836.000000	2.542818
4834.000000	2.545944
4832.000000	2.549906
4830.000000	2.553664
4828.000000	2.556856
4826.000000	2.559834
4824.000000	2.563180
4822.000000	2.567109
4820.000000	2.570898
4818.000000	2.574044
4816.000000	2.576980
4814.000000	2.580231
4812.000000	2.583667
4810.000000	2.587483
4808.000000	2.591392
4806.000000	2.594309
4804.000000	2.596664
4802.000000	2.600095
4800.000000	2.604764
4798.000000	2.609037
4796.000000	2.611950
4794.000000	2.614335
4792.000000	2.618003
4790.000000	2.622304
4788.000000	2.625447
4786.000000	2.627880
4784.000000	2.631447
4782.000000	2.635967
4780.000000	2.640075
4778.000000	2.643396
4776.000000	2.646582
4774.000000	2.649605
4772.000000	2.651730
4770.000000	2.653462
4768.000000	2.656676
4766.000000	2.661843
4764.000000	2.666811
4762.000000	2.669902
4760.000000	2.671822
4758.000000	2.674444
4756.000000	2.678097
4754.000000	2.682339
4752.000000	2.686303
4750.000000	2.690015
4748.000000	2.693305
4746.000000	2.696229
4744.000000	2.699197
4742.000000	2.703039
4740.000000	2.706751
4738.000000	2.709996
4736.000000	2.712759
4734.000000	2.715912
4732.000000	2.719797
4730.000000	2.723597
4728.000000	2.726803
4726.000000	2.729912
4724.000000	2.733834
4722.000000	2.738923
4720.000000	2.743240
4718.000000	2.745697
4716.000000	2.748118
4714.000000	2.751519
4712.000000	2.754030
4710.000000	2.756110
4708.000000	2.759641
4706.000000	2.764201
4704.000000	2.768222
4702.000000	2.771690
4700.000000	2.775344
4698.000000	2.779142
4696.000000	2.782890
4694.000000	2.787419
4692.000000	2.791855
4690.000000	2.794684
4688.000000	2.796791
4686.000000	2.800100
4684.000000	2.804109
4682.000000	2.807523
4680.000000	2.810855
4678.000000	2.814073
4676.000000	2.816798
4674.000000	2.819934
4672.000000	2.824081
4670.000000	2.828019
4668.000000	2.831225
4666.000000	2.834196
4664.000000	2.836733
4662.000000	2.839394
4660.000000	2.843090
4658.000000	2.847823
4656.000000	2.851629
4654.000000	2.854944
4652.000000	2.858546
4650.000000	2.862410
4648.000000	2.865960
4646.000000	2.870041
4644.000000	2.874570
4642.000000	2.878488
4640.000000	2.881564
4638.000000	2.884422
4636.000000	2.888002
4634.000000	2.892129
4632.000000	2.895813
4630.000000	2.898402
4628.000000	2.900647
4626.000000	2.903567
4624.000000	2.907242
4622.000000	2.911194
4620.000000	2.915370
4618.000000	2.920010
4616.000000	2.924052
4614.000000	2.927006
4612.000000	2.930173
4610.000000	2.934463
4608.000000	2.938681
4606.000000	2.942656
4604.000000	2.946707
4602.000000	2.950408
4600.000000	2.953059
4598.000000	2.955806
4596.000000	2.959611
4594.000000	2.963314
4592.000000	2.966875
4590.000000	2.971429
4588.000000	2.975828
4586.000000	2.978923
4584.000000	2.982200
4582.000000	2.986370
4580.000000	2.989837
4578.000000	2.992552
4576.000000	2.995605
4574.000000	2.999039
4572.000000	3.002198
4570.000000	3.005470
4568.000000	3.009245
4566.000000	3.012306
4564.000000	3.015045
4562.000000	3.019082
4560.000000	3.024230
4558.000000	3.028122
4556.000000	3.031918
4554.000000	3.035834
4552.000000	3.038813
4550.000000	3.041374
4548.000000	3.045345
4546.000000	3.050037
4544.000000	3.054051
4542.000000	3.057119
4540.000000	3.060850
4538.000000	3.064729
4536.000000	3.067597
4534.000000	3.071053
4532.000000	3.075928
4530.000000	3.080658
4528.000000	3.084918
4526.000000	3.088534
4524.000000	3.090589
4522.000000	3.092774
4520.000000	3.096643
4518.000000	3.101018
4516.000000	3.105644
4514.000000	3.110229
4512.000000	3.113886
4510.000000	3.116865
4508.000000	3.120320
4506.000000	3.123753
4504.000000	3.127462
4502.000000	3.130835
4500.000000	3.133446
4498.000000	3.136274
4496.000000	3.140304
4494.000000	3.145264
4492.000000	3.150514
4490.000000	3.154322
4488.000000	3.156671
4486.000000	3.158923
4484.000000	3.161607
4482.000000	3.165651
4480.000000	3.170896
4478.000000	3.175373
4476.000000	3.178812
4474.000000	3.182282
4472.000000	3.185700
4470.000000	3.188992
4468.000000	3.193021
4466.000000	3.197136
4464.000000	3.200072
4462.000000	3.202806
4460.000000	3.205944
4458.000000	3.208747
4456.000000	3.212282
4454.000000	3.216706
4452.000000	3.220627
4450.000000	3.224361
4448.000000	3.228494
4446.000000	3.232671
4444.000000	3.236499
4442.000000	3.239842
4440.000000	3.242491
4438.000000	3.245405
4436.000000	3.249211
4434.000000	3.253776
4432.000000	3.258560
4430.000000	3.262307
4428.000000	3.264641
4426.000000	3.267409
4424.000000	3.271014
4422.000000	3.274782
4420.000000	3.278190
4418.000000	3.281402
4416.000000	3.285444
4414.000000	3.289875
4412.000000	3.293420
4410.000000	3.297314
4408.000000	3.302183
4406.000000	3.306820
4404.000000	3.310249
4402.000000	3.312728
4400.000000	3.316202
4398.000000	3.321191
4396.000000	3.325410
4394.000000	3.328881
4392.000000	3.332396
4390.000000	3.334821
4388.000000	3.337207
4386.000000	3.341167
4384.000000	3.345189
4382.000000	3.349004
4380.000000	3.353070
4378.000000	3.356049
4376.000000	3.358520
4374.000000	3.361728
4372.000000	3.364955
4370.000000	3.367864
4368.000000	3.371780
4366.000000	3.376538
4364.000000	3.380538
4362.000000	3.383405
4360.000000	3.385945
4358.000000	3.389097
4356.000000	3.393201
4354.000000	3.397258
4352.000000	3.400651
4350.000000	3.404409
4348.000000	3.408440
4346.000000	3.411673
4344.000000	3.414376
4342.000000	3.418497
4340.000000	3.423659
4338.000000	3.428396
4336.000000	3.432117
4334.000000	3.434735
4332.000000	3.438078
4330.000000	3.443199
4328.000000	3.447956
4326.000000	3.451571
4324.000000	3.455449
4322.000000	3.460221
4320.000000	3.463841
4318.000000	3.466705
4316.000000	3.470981
4314.000000	3.474795
4312.000000	3.476762
4310.000000	3.480039
4308.000000	3.484639
4306.000000	3.489430
4304.000000	3.494818
4302.000000	3.499117
4300.000000	3.501616
4298.000000	3.504934
4296.000000	3.509120
4294.000000	3.512508
4292.000000	3.515332
4290.000000	3.518865
4288.000000	3.523259
4286.000000	3.527645
4284.000000	3.531125
4282.000000	3.534001
4280.000000	3.537720
4278.000000	3.541850
4276.000000	3.544517
4274.000000	3.547215
4272.000000	3.551103
4270.000000	3.554365
4268.000000	3.557352
4266.000000	3.560930
4264.000000	3.564356
4262.000000	3.568309
4260.000000	3.572667
4258.000000	3.576248
4256.000000	3.579943
4254.000000	3.583823
4252.000000	3.586784
4250.000000	3.590343
4248.000000	3.595162
4246.000000	3.599092
4244.000000	3.602159
4242.000000	3.606340
4240.000000	3.611364
4238.000000	3.616030
4236.000000	3.619791
4234.000000	3.623492
4232.000000	3.627455
4230.000000	3.630470
4228.000000	3.633641
4226.000000	3.637780
4224.000000	3.641639
4222.000000	3.645200
4220.000000	3.648706
4218.000000	3.652522
4216.000000	3.656968
4214.000000	3.661189
4212.000000	3.665210
4210.000000	3.669504
4208.000000	3.673332
4206.000000	3.676544
4204.000000	3.680287
4202.000000	3.684906
4200.000000	3.689225
4198.000000	3.692625
4196.000000	3.696611
4194.000000	3.701842
4192.000000	3.706307
4190.000000	3.709023
4188.000000	3.712104
4186.000000	3.716228
4184.000000	3.720479
4182.000000	3.724193
4180.000000	3.727339
4178.000000	3.730871
4176.000000	3.735288
4174.000000	3.739178
4172.000000	3.743259
4170.000000	3.747709
4168.000000	3.751485
4166.000000	3.755021
4164.000000	3.758617
4162.000000	3.762425
4160.000000	3.766608
4158.000000	3.770817
4156.000000	3.774786
4154.000000	3.778201
4152.000000	3.782645
4150.000000	3.787736
4148.000000	3.791462
4146.000000	3.794833
4144.000000	3.798997
4142.000000	3.803455
4140.000000	3.807355
4138.000000	3.810937
4136.000000	3.815004
4134.000000	3.819648
4132.000000	3.824466
4130.000000	3.828663
4128.000000	3.831857
4126.000000	3.834458
4124.000000	3.837511
4122.000000	3.842364
4120.000000	3.847968
4118.000000	3.852652
4116.000000	3.856196
4114.000000	3.859709
4112.000000	3.863708
4110.000000	3.867746
4108.000000	3.871740
4106.000000	3.875237
4104.000000	3.877539
4102.000000	3.880714
4100.000000	3.886164
4098.000000	3.891926
4096.000000	3.896575
4094.000000	3.899610
4092.000000	3.902249
4090.000000	3.906156
4088.000000	3.909747
4086.000000	3.912788
4084.000000	3.917169
4082.000000	3.922485
4080.000000	3.927777
4078.000000	3.932847
4076.000000	3.937152
4074.000000	3.940164
4072.000000	3.942952
4070.000000	3.946324
4068.000000	3.950250
4066.000000	3.954998
4064.000000	3.959354
4062.000000	3.962475
4060.000000	3.965281
4058.000000	3.968115
4056.000000	3.972084
4054.000000	3.977824
4052.000000	3.983395
4050.000000	3.988000
4048.000000	3.992187
4046.000000	3.995633
4044.000000	3.999229
4042.000000	4.003018
4040.000000	4.006389
4038.000000	4.010932
4036.000000	4.016546
4034.000000	4.021084
4032.000000	4.024425
4030.000000	4.027975
4028.000000	4.032177
4026.000000	4.035792
4024.000000	4.039794
4022.000000	4.045360
4020.000000	4.050324
4018.000000	4.053340
4016.000000	4.056891
4014.000000	4.062408
4012.000000	4.067946
4010.000000	4.071908
4008.000000	4.075469
4006.000000	4.080414
4004.000000	4.085964
4002.000000	4.090180
4000.000000	4.094023
3998.000000	4.097704
3996.000000	4.100137
3994.000000	4.103134
3992.000000	4.107107
3990.000000	4.110790
3988.000000	4.115469
3986.000000	4.120576
3984.000000	4.124644
3982.000000	4.128133
3980.000000	4.131585
3978.000000	4.135785
3976.000000	4.140036
3974.000000	4.143142
3972.000000	4.145879
3970.000000	4.149482
3968.000000	4.154057
3966.000000	4.159273
3964.000000	4.164279
3962.000000	4.167245
3960.000000	4.169369
3958.000000	4.173404
3956.000000	4.178460
3954.000000	4.182927
3952.000000	4.186001
3950.000000	4.186982
3948.000000	4.188666
3946.000000	4.193397
3944.000000	4.197936
3942.000000	4.201097
3940.000000	4.206536
3938.000000	4.214035
3936.000000	4.219158
3934.000000	4.220039
3932.000000	4.218923
3930.000000	4.222322
3928.000000	4.230883
3926.000000	4.235433
3924.000000	4.236319
3922.000000	4.240362
3920.000000	4.243120
3918.000000	4.241682
3916.000000	4.244004
3914.000000	4.254928
3912.000000	4.268435
3910.000000	4.275703
3908.000000	4.276514
3906.000000	4.270834
3904.000000	4.256509
3902.000000	4.244702
3900.000000	4.246639
3898.000000	4.261101
3896.000000	4.282927
3894.000000	4.296912
3892.000000	4.291867
3890.000000	4.286030
3888.000000	4.292232
3886.000000	4.291568
3884.000000	4.288016
3882.000000	4.298479
3880.000000	4.307781
3878.000000	4.315257
3876.000000	4.326960
3874.000000	4.328572
3872.000000	4.318306
3870.000000	4.302583
3868.000000	4.299370
3866.000000	4.314343
3864.000000	4.325250
3862.000000	4.335186
3860.000000	4.353631
3858.000000	4.363871
3856.000000	4.337518
3854.000000	4.270617
3852.000000	4.237273
3850.000000	4.290340
3848.000000	4.363216
3846.000000	4.393434
3844.000000	4.393598
3842.000000	4.385729
3840.000000	4.368671
3838.000000	4.341061
3836.000000	4.335121
3834.000000	4.364075
3832.000000	4.393207
3830.000000	4.408964
3828.000000	4.421384
3826.000000	4.428790
3824.000000	4.427479
3822.000000	4.411752
3820.000000	4.396289
3818.000000	4.398476
3816.000000	4.396049
3814.000000	4.402393
3812.000000	4.440564
3810.000000	4.467259
3808.000000	4.455846
3806.000000	4.436843
3804.000000	4.436918
3802.000000	4.430158
3800.000000	4.419291
3798.000000	4.443256
3796.000000	4.474780
3794.000000	4.491101
3792.000000	4.505734
3790.000000	4.514129
3788.000000	4.516227
3786.000000	4.517283
3784.000000	4.519005
3782.000000	4.522886
3780.000000	4.522685
3778.000000	4.521822
3776.000000	4.531603
3774.000000	4.542437
3772.000000	4.540367
3770.000000	4.529158
3768.000000	4.526047
3766.000000	4.535428
3764.000000	4.546664
3762.000000	4.555244
3760.000000	4.554555
3758.000000	4.550620
3756.000000	4.553589
3754.000000	4.542671
3752.000000	4.501310
3750.000000	4.465701
3748.000000	4.475284
3746.000000	4.491334
3744.000000	4.476555
3742.000000	4.495720
3740.000000	4.558103
3738.000000	4.579131
3736.000000	4.556794
3734.000000	4.545107
3732.000000	4.557292
3730.000000	4.584284
3728.000000	4.611544
3726.000000	4.620462
3724.000000	4.620992
3722.000000	4.626641
3720.000000	4.635000
3718.000000	4.645410
3716.000000	4.652591
3714.000000	4.644625
3712.000000	4.620633
3710.000000	4.610535
3708.000000	4.632940
3706.000000	4.664028
3704.000000	4.678625
3702.000000	4.675390
3700.000000	4.673617
3698.000000	4.684668
3696.000000	4.695197
3694.000000	4.696723
3692.000000	4.685394
3690.000000	4.655729
3688.000000	4.630479
3686.000000	4.649298
3684.000000	4.696361
3682.000000	4.721515
3680.000000	4.720731
3678.000000	4.702225
3676.000000	4.663182
3674.000000	4.642800
3672.000000	4.658595
3670.000000	4.666071
3668.000000	4.679826
3666.000000	4.721093
3664.000000	4.751468
3662.000000	4.760389
3660.000000	4.761570
3658.000000	4.753767
3656.000000	4.738161
3654.000000	4.735747
3652.000000	4.735836
3650.000000	4.706863
3648.000000	4.683436
3646.000000	4.708100
3644.000000	4.752503
3642.000000	4.777293
3640.000000	4.783714
3638.000000	4.786434
3636.000000	4.788042
3634.000000	4.786084
3632.000000	4.776480
3630.000000	4.745712
3628.000000	4.715449
3626.000000	4.735703
3624.000000	4.780268
3622.000000	4.793325
3620.000000	4.777304
3618.000000	4.763490
3616.000000	4.770548
3614.000000	4.780815
3612.000000	4.778788
3610.000000	4.773013
3608.000000	4.771391
3606.000000	4.782667
3604.000000	4.800923
3602.000000	4.808250
3600.000000	4.806117
3598.000000	4.804819
3596.000000	4.803689
3594.000000	4.801881
3592.000000	4.804127
3590.000000	4.802309
3588.000000	4.788107
3586.000000	4.780912
3584.000000	4.794366
3582.000000	4.809931
3580.000000	4.815052
3578.000000	4.815798
3576.000000	4.816204
3574.000000	4.816172
3572.000000	4.816085
3570.000000	4.810776
3568.000000	4.795907
3566.000000	4.784566
3564.000000	4.791057
3562.000000	4.803913
3560.000000	4.809346
3558.000000	4.811463
3556.000000	4.812960
3554.000000	4.810750
3552.000000	4.807387
3550.000000	4.806335
3548.000000	4.803859
3546.000000	4.797817
3544.000000	4.794804
3542.000000	4.797978
3540.000000	4.801618
3538.000000	4.801616
3536.000000	4.799311
3534.000000	4.796202
3532.000000	4.793495
3530.000000	4.790629
3528.000000	4.785310
3526.000000	4.779806
3524.000000	4.776789
3522.000000	4.774778
3520.000000	4.773750
3518.000000	4.771981
3516.000000	4.768743
3514.000000	4.765309
3512.000000	4.760891
3510.000000	4.754748
3508.000000	4.749025
3506.000000	4.745858
3504.000000	4.741122
3502.000000	4.733538
3500.000000	4.728513
3498.000000	4.725508
3496.000000	4.721136
3494.000000	4.716659
3492.000000	4.711997
3490.000000	4.704990
3488.000000	4.697445
3486.000000	4.692121
3484.000000	4.687684
3482.000000	4.682486
3480.000000	4.678014
3478.000000	4.675747
3476.000000	4.674080
3474.000000	4.670817
3472.000000	4.667563
3470.000000	4.664806
3468.000000	4.661370
3466.000000	4.658552
3464.000000	4.656353
3462.000000	4.654537
3460.000000	4.653206
3458.000000	4.651493
3456.000000	4.649083
3454.000000	4.646949
3452.000000	4.645692
3450.000000	4.643619
3448.000000	4.639190
3446.000000	4.633996
3444.000000	4.632341
3442.000000	4.632077
3440.000000	4.631691
3438.000000	4.633385
3436.000000	4.635148
3434.000000	4.636534
3432.000000	4.639619
3430.000000	4.643782
3428.000000	4.647642
3426.000000	4.651368
3424.000000	4.654481
3422.000000	4.656718
3420.000000	4.659596
3418.000000	4.663496
3416.000000	4.667595
3414.000000	4.670611
3412.000000	4.672116
3410.000000	4.672605
3408.000000	4.672793
3406.000000	4.673725
3404.000000	4.674702
3402.000000	4.675484
3400.000000	4.676783
3398.000000	4.678275
3396.000000	4.680380
3394.000000	4.682974
3392.000000	4.685508
3390.000000	4.688640
3388.000000	4.691454
3386.000000	4.692539
3384.000000	4.694951
3382.000000	4.697512
3380.000000	4.699002
3378.000000	4.700894
3376.000000	4.702888
3374.000000	4.704393
3372.000000	4.705045
3370.000000	4.706582
3368.000000	4.708638
3366.000000	4.708759
3364.000000	4.708975
3362.000000	4.711226
3360.000000	4.713989
3358.000000	4.715562
3356.000000	4.716426
3354.000000	4.717297
3352.000000	4.719023
3350.000000	4.721122
3348.000000	4.721597
3346.000000	4.722950
3344.000000	4.725966
3342.000000	4.727601
3340.000000	4.729309
3338.000000	4.731281
3336.000000	4.732201
3334.000000	4.733639
3332.000000	4.736503
3330.000000	4.739159
3328.000000	4.741509
3326.000000	4.742666
3324.000000	4.743482
3322.000000	4.745116
3320.000000	4.745322
3318.000000	4.745765
3316.000000	4.747755
3314.000000	4.748743
3312.000000	4.749597
3310.000000	4.751066
3308.000000	4.752816
3306.000000	4.754909
3304.000000	4.756952
3302.000000	4.758497
3300.000000	4.759803
3298.000000	4.761391
3296.000000	4.762222
3294.000000	4.762642
3292.000000	4.763941
3290.000000	4.766180
3288.000000	4.768433
3286.000000	4.770308
3284.000000	4.771858
3282.000000	4.772922
3280.000000	4.774288
3278.000000	4.776061
3276.000000	4.778475
3274.000000	4.780818
3272.000000	4.782363
3270.000000	4.783966
3268.000000	4.786267
3266.000000	4.788068
3264.000000	4.789474
3262.000000	4.792196
3260.000000	4.794476
3258.000000	4.795990
3256.000000	4.798008
3254.000000	4.799732
3252.000000	4.802270
3250.000000	4.806186
3248.000000	4.808744
3246.000000	4.808871
3244.000000	4.809278
3242.000000	4.810880
3240.000000	4.813211
3238.000000	4.816294
3236.000000	4.819132
3234.000000	4.821163
3232.000000	4.823489
3230.000000	4.826503
3228.000000	4.829564
3226.000000	4.832331
3224.000000	4.834537
3222.000000	4.836495
3220.000000	4.838465
3218.000000	4.841285
3216.000000	4.844276
3214.000000	4.846333
3212.000000	4.848407
3210.000000	4.850505
3208.000000	4.852772
3206.000000	4.856421
3204.000000	4.860656
3202.000000	4.864261
3200.000000	4.868723
3198.000000	4.873123
3196.000000	4.876882
3194.000000	4.880732
3192.000000	4.884774
3190.000000	4.888950
3188.000000	4.893378
3186.000000	4.896945
3184.000000	4.899750
3182.000000	4.903188
3180.000000	4.907223
3178.000000	4.911013
3176.000000	4.913941
3174.000000	4.916893
3172.000000	4.921667
3170.000000	4.926456
3168.000000	4.929985
3166.000000	4.933419
3164.000000	4.937131
3162.000000	4.941445
3160.000000	4.946126
3158.000000	4.950075
3156.000000	4.953223
3154.000000	4.956367
3152.000000	4.959969
3150.000000	4.964351
3148.000000	4.969014
3146.000000	4.972626
3144.000000	4.975645
3142.000000	4.979582
3140.000000	4.983345
3138.000000	4.987516
3136.000000	4.992149
3134.000000	4.995119
3132.000000	4.997649
3130.000000	5.000953
3128.000000	5.003996
3126.000000	5.007575
3124.000000	5.011655
3122.000000	5.014680
3120.000000	5.017312
3118.000000	5.020390
3116.000000	5.023352
3114.000000	5.026572
3112.000000	5.030078
3110.000000	5.033207
3108.000000	5.036943
3106.000000	5.040608
3104.000000	5.043701
3102.000000	5.047103
3100.000000	5.050453
3098.000000	5.054060
3096.000000	5.058315
3094.000000	5.062667
3092.000000	5.067659
3090.000000	5.072085
3088.000000	5.075763
3086.000000	5.079497
3084.000000	5.083440
3082.000000	5.086798
3080.000000	5.089933
3078.000000	5.093384
3076.000000	5.096133
3074.000000	5.098209
3072.000000	5.100322
3070.000000	5.102280
3068.000000	5.103302
3066.000000	5.104136
3064.000000	5.106173
3062.000000	5.109203
3060.000000	5.112797
3058.000000	5.115994
3056.000000	5.119214
3054.000000	5.124872
3052.000000	5.131096
3050.000000	5.134480
3048.000000	5.136963
3046.000000	5.140098
3044.000000	5.141833
3042.000000	5.143125
3040.000000	5.145792
3038.000000	5.148014
3036.000000	5.149654
3034.000000	5.150696
3032.000000	5.150971
3030.000000	5.149511
3028.000000	5.146475
3026.000000	5.142180
3024.000000	5.135945
3022.000000	5.129697
3020.000000	5.124564
3018.000000	5.122845
3016.000000	5.126515
3014.000000	5.136489
3012.000000	5.151985
3010.000000	5.170046
3008.000000	5.186348
3006.000000	5.197862
3004.000000	5.206060
3002.000000	5.212963
3000.000000	5.217019
2998.000000	5.219735
2996.000000	5.223146
2994.000000	5.224752
2992.000000	5.224766
2990.000000	5.224778
2988.000000	5.224242
2986.000000	5.223728
2984.000000	5.222023
2982.000000	5.217996
2980.000000	5.211756
2978.000000	5.203357
2976.000000	5.191695
2974.000000	5.174311
2972.000000	5.151941
2970.000000	5.123900
2968.000000	5.090930
2966.000000	5.057770
2964.000000	5.029231
2962.000000	5.011274
2960.000000	5.007850
2958.000000	5.016560
2956.000000	5.031672
2954.000000	5.048550
2952.000000	5.063724
2950.000000	5.073444
2948.000000	5.076935
2946.000000	5.074363
2944.000000	5.063410
2942.000000	5.043170
2940.000000	5.017869
2938.000000	4.990482
2936.000000	4.962965
2934.000000	4.937578
2932.000000	4.914720
2930.000000	4.893011
2928.000000	4.872535
2926.000000	4.857138
2924.000000	4.853253
2922.000000	4.865903
2920.000000	4.896314
2918.000000	4.939775
2916.000000	4.988514
2914.000000	5.037380
2912.000000	5.081152
2910.000000	5.115989
2908.000000	5.143780
2906.000000	5.166210
2904.000000	5.185012
2902.000000	5.201682
2900.000000	5.216993
2898.000000	5.231638
2896.000000	5.244953
2894.000000	5.257214
2892.000000	5.269488
2890.000000	5.281464
2888.000000	5.292887
2886.000000	5.303273
2884.000000	5.310722
2882.000000	5.314672
2880.000000	5.317143
2878.000000	5.317714
2876.000000	5.313698
2874.000000	5.305406
2872.000000	5.294222
2870.000000	5.278562
2868.000000	5.256088
2866.000000	5.226540
2864.000000	5.194938
2862.000000	5.168463
2860.000000	5.154673
2858.000000	5.157575
2856.000000	5.171891
2854.000000	5.190222
2852.000000	5.210837
2850.000000	5.235039
2848.000000	5.266368
2846.000000	5.302839
2844.000000	5.336704
2842.000000	5.363458
2840.000000	5.385182
2838.000000	5.404686
2836.000000	5.419913
2834.000000	5.430536
2832.000000	5.439524
2830.000000	5.447578
2828.000000	5.455276
2826.000000	5.462392
2824.000000	5.468689
2822.000000	5.473896
2820.000000	5.478621
2818.000000	5.483931
2816.000000	5.489254
2814.000000	5.494403
2812.000000	5.498868
2810.000000	5.502031
2808.000000	5.504472
2806.000000	5.507415
2804.000000	5.510957
2802.000000	5.513865
2800.000000	5.516332
2798.000000	5.518930
2796.000000	5.521402
2794.000000	5.524955
2792.000000	5.528771
2790.000000	5.530710
2788.000000	5.534105
2786.000000	5.538462
2784.000000	5.543269
2782.000000	5.548491
2780.000000	5.553209
2778.000000	5.557269
2776.000000	5.560910
2774.000000	5.564609
2772.000000	5.568048
2770.000000	5.571488
2768.000000	5.574681
2766.000000	5.576825
2764.000000	5.579508
2762.000000	5.582957
2760.000000	5.585782
2758.000000	5.588410
2756.000000	5.590918
2754.000000	5.592286
2752.000000	5.593570
2750.000000	5.595360
2748.000000	5.597797
2746.000000	5.600134
2744.000000	5.601887
2742.000000	5.604221
2740.000000	5.606146
2738.000000	5.607369
2736.000000	5.608842
2734.000000	5.610599
2732.000000	5.612015
2730.000000	5.614019
2728.000000	5.615582
2726.000000	5.615679
2724.000000	5.616849
2722.000000	5.618999
2720.000000	5.620252
2718.000000	5.620458
2716.000000	5.620800
2714.000000	5.622201
2712.000000	5.623230
2710.000000	5.623965
2708.000000	5.624245
2706.000000	5.624762
2704.000000	5.625938
2702.000000	5.626447
2700.000000	5.626479
2698.000000	5.626952
2696.000000	5.629728
2694.000000	5.632746
2692.000000	5.634117
2690.000000	5.634522
2688.000000	5.635605
2686.000000	5.636706
2684.000000	5.637176
2682.000000	5.637495
2680.000000	5.638327
2678.000000	5.639331
2676.000000	5.640469
2674.000000	5.641961
2672.000000	5.643354
2670.000000	5.644758
2668.000000	5.645539
2666.000000	5.645480
2664.000000	5.645721
2662.000000	5.647130
2660.000000	5.648370
2658.000000	5.648292
2656.000000	5.648567
2654.000000	5.649629
2652.000000	5.651130
2650.000000	5.653009
2648.000000	5.654710
2646.000000	5.656145
2644.000000	5.657255
2642.000000	5.658578
2640.000000	5.660203
2638.000000	5.662321
2636.000000	5.664332
2634.000000	5.665762
2632.000000	5.667173
2630.000000	5.668282
2628.000000	5.670135
2626.000000	5.672692
2624.000000	5.674498
2622.000000	5.675731
2620.000000	5.677144
2618.000000	5.678233
2616.000000	5.677649
2614.000000	5.678240
2612.000000	5.680068
2610.000000	5.680835
2608.000000	5.681680
2606.000000	5.683221
2604.000000	5.683425
2602.000000	5.682909
2600.000000	5.683279
2598.000000	5.684476
2596.000000	5.684362
2594.000000	5.683983
2592.000000	5.684965
2590.000000	5.687001
2588.000000	5.689287
2586.000000	5.691618
2584.000000	5.695587
2582.000000	5.697977
2580.000000	5.699372
2578.000000	5.702342
2576.000000	5.706568
2574.000000	5.709804
2572.000000	5.711842
2570.000000	5.714184
2568.000000	5.716847
2566.000000	5.717605
2564.000000	5.718598
2562.000000	5.720610
2560.000000	5.722334
2558.000000	5.723266
2556.000000	5.723555
2554.000000	5.723980
2552.000000	5.726213
2550.000000	5.729024
2548.000000	5.730507
2546.000000	5.730768
2544.000000	5.731994
2542.000000	5.733588
2540.000000	5.735356
2538.000000	5.737907
2536.000000	5.740562
2534.000000	5.741627
2532.000000	5.741655
2530.000000	5.742299
2528.000000	5.743668
2526.000000	5.745673
2524.000000	5.747257
2522.000000	5.748702
2520.000000	5.750622
2518.000000	5.751635
2516.000000	5.752045
2514.000000	5.753298
2512.000000	5.755067
2510.000000	5.756562
2508.000000	5.757154
2506.000000	5.757051
2504.000000	5.757834
2502.000000	5.759857
2500.000000	5.762440
2498.000000	5.765285
2496.000000	5.768075
2494.000000	5.769705
2492.000000	5.768901
2490.000000	5.769298
2488.000000	5.772239
2486.000000	5.774739
2484.000000	5.776717
2482.000000	5.778308
2480.000000	5.779022
2478.000000	5.779559
2476.000000	5.780472
2474.000000	5.781686
2472.000000	5.782484
2470.000000	5.783724
2468.000000	5.785538
2466.000000	5.785682
2464.000000	5.785706
2462.000000	5.786711
2460.000000	5.787036
2458.000000	5.787655
2456.000000	5.789516
2454.000000	5.790236
2452.000000	5.790357
2450.000000	5.791490
2448.000000	5.793078
2446.000000	5.793860
2444.000000	5.795188
2442.000000	5.797047
2440.000000	5.796860
2438.000000	5.796437
2436.000000	5.797437
2434.000000	5.798498
2432.000000	5.800335
2430.000000	5.801203
2428.000000	5.802395
2426.000000	5.804374
2424.000000	5.805125
2422.000000	5.805484
2420.000000	5.805797
2418.000000	5.806857
2416.000000	5.807865
2414.000000	5.807621
2412.000000	5.807946
2410.000000	5.809216
2408.000000	5.810683
2406.000000	5.811533
2404.000000	5.811813
2402.000000	5.812691
2400.000000	5.813815
2398.000000	5.815805
2396.000000	5.817964
2394.000000	5.819215
2392.000000	5.820433
2390.000000	5.820868
2388.000000	5.820985
2386.000000	5.821317
2384.000000	5.820969
2382.000000	5.819979
2380.000000	5.817303
2378.000000	5.811836
2376.000000	5.803203
2374.000000	5.791850
2372.000000	5.777463
2370.000000	5.760440
2368.000000	5.744261
2366.000000	5.731294
2364.000000	5.721232
2362.000000	5.716690
2360.000000	5.717868
2358.000000	5.724111
2356.000000	5.736353
2354.000000	5.753798
2352.000000	5.777011
2350.000000	5.800143
2348.000000	5.808298
2346.000000	5.795921
2344.000000	5.773583
2342.000000	5.750475
2340.000000	5.733053
2338.000000	5.727570
2336.000000	5.733083
2334.000000	5.741768
2332.000000	5.748625
2330.000000	5.755597
2328.000000	5.762801
2326.000000	5.769948
2324.000000	5.778558
2322.000000	5.787628
2320.000000	5.796102
2318.000000	5.802959
2316.000000	5.808493
2314.000000	5.813508
2312.000000	5.818785
2310.000000	5.823799
2308.000000	5.827470
2306.000000	5.830217
2304.000000	5.832705
2302.000000	5.835360
2300.000000	5.837583
2298.000000	5.839189
2296.000000	5.840352
2294.000000	5.840620
2292.000000	5.840970
2290.000000	5.840755
2288.000000	5.840228
2286.000000	5.840528
2284.000000	5.841654
2282.000000	5.842228
2280.000000	5.842664
2278.000000	5.843391
2276.000000	5.842777
2274.000000	5.841072
2272.000000	5.840209
2270.000000	5.839974
2268.000000	5.839488
2266.000000	5.838764
2264.000000	5.839017
2262.000000	5.841104
2260.000000	5.842654
2258.000000	5.842711
2256.000000	5.844043
2254.000000	5.843559
2252.000000	5.842455
2250.000000	5.843444
2248.000000	5.845342
2246.000000	5.846015
2244.000000	5.846315
2242.000000	5.846053
2240.000000	5.846227
2238.000000	5.848362
2236.000000	5.851003
2234.000000	5.853905
2232.000000	5.855448
2230.000000	5.855426
2228.000000	5.855148
2226.000000	5.855412
2224.000000	5.857581
2222.000000	5.859471
2220.000000	5.859880
2218.000000	5.860455
2216.000000	5.861093
2214.000000	5.861417
2212.000000	5.863073
2210.000000	5.863530
2208.000000	5.863606
2206.000000	5.865327
2204.000000	5.867594
2202.000000	5.867587
2200.000000	5.866944
2198.000000	5.867257
2196.000000	5.867801
2194.000000	5.868932
2192.000000	5.871015
2190.000000	5.872027
2188.000000	5.871044
2186.000000	5.871481
2184.000000	5.872051
2182.000000	5.871326
2180.000000	5.871818
2178.000000	5.873316
2176.000000	5.874311
2174.000000	5.874339
2172.000000	5.874935
2170.000000	5.874009
2168.000000	5.872693
2166.000000	5.874754
2164.000000	5.877081
2162.000000	5.877037
2160.000000	5.877348
2158.000000	5.878071
2156.000000	5.879193
2154.000000	5.880292
2152.000000	5.880792
2150.000000	5.880822
2148.000000	5.880466
2146.000000	5.880599
2144.000000	5.882055
2142.000000	5.884245
2140.000000	5.886091
2138.000000	5.886569
2136.000000	5.886206
2134.000000	5.886293
2132.000000	5.887268
2130.000000	5.887720
2128.000000	5.888658
2126.000000	5.890720
2124.000000	5.891743
2122.000000	5.891699
2120.000000	5.891361
2118.000000	5.890810
2116.000000	5.890940
2114.000000	5.892254
2112.000000	5.894233
2110.000000	5.894898
2108.000000	5.895882
2106.000000	5.897485
2104.000000	5.899959
2102.000000	5.902021
2100.000000	5.902754
2098.000000	5.903583
2096.000000	5.904368
2094.000000	5.905939
2092.000000	5.908077
2090.000000	5.908283
2088.000000	5.907303
2086.000000	5.907780
2084.000000	5.909947
2082.000000	5.913200
2080.000000	5.916804
2078.000000	5.918826
2076.000000	5.918945
2074.000000	5.919369
2072.000000	5.922965
2070.000000	5.924679
2068.000000	5.924250
2066.000000	5.923326
2064.000000	5.923399
2062.000000	5.925778
2060.000000	5.929482
2058.000000	5.933035
2056.000000	5.937211
2054.000000	5.938771
2052.000000	5.937439
2050.000000	5.938472
2048.000000	5.941594
2046.000000	5.942866
2044.000000	5.942984
2042.000000	5.943797
2040.000000	5.945159
2038.000000	5.946541
2036.000000	5.947646
2034.000000	5.949468
2032.000000	5.950728
2030.000000	5.950546
2028.000000	5.951856
2026.000000	5.954918
2024.000000	5.956426
2022.000000	5.956577
2020.000000	5.956863
2018.000000	5.956463
2016.000000	5.957321
2014.000000	5.961631
2012.000000	5.964340
2010.000000	5.964416
2008.000000	5.965126
2006.000000	5.966943
2004.000000	5.968567
2002.000000	5.969117
2000.000000	5.968483
1998.000000	5.968123
1996.000000	5.968347
1994.000000	5.967393
1992.000000	5.964538
1990.000000	5.965522
1988.000000	5.970023
1986.000000	5.972553
1984.000000	5.972668
1982.000000	5.972878
1980.000000	5.972540
1978.000000	5.970721
1976.000000	5.970008
1974.000000	5.969325
1972.000000	5.968653
1970.000000	5.967885
1968.000000	5.964364
1966.000000	5.960490
1964.000000	5.961093
1962.000000	5.961563
1960.000000	5.955977
1958.000000	5.949752
1956.000000	5.952825
1954.000000	5.957120
1952.000000	5.957090
1950.000000	5.953672
1948.000000	5.951203
1946.000000	5.950073
1944.000000	5.945186
1942.000000	5.939429
1940.000000	5.942167
1938.000000	5.945998
1936.000000	5.945492
1934.000000	5.942934
1932.000000	5.941403
1930.000000	5.940945
1928.000000	5.939325
1926.000000	5.935938
1924.000000	5.930347
1922.000000	5.925442
1920.000000	5.921320
1918.000000	5.909473
1916.000000	5.910401
1914.000000	5.920254
1912.000000	5.919030
1910.000000	5.912526
1908.000000	5.908584
1906.000000	5.907364
1904.000000	5.905193
1902.000000	5.903325
1900.000000	5.900944
1898.000000	5.896596
1896.000000	5.891242
1894.000000	5.888334
1892.000000	5.886776
1890.000000	5.878336
1888.000000	5.875431
1886.000000	5.882890
1884.000000	5.885873
1882.000000	5.885496
1880.000000	5.883732
1878.000000	5.881334
1876.000000	5.879952
1874.000000	5.879637
1872.000000	5.874184
1870.000000	5.854595
1868.000000	5.842364
1866.000000	5.855763
1864.000000	5.867651
1862.000000	5.868801
1860.000000	5.866358
1858.000000	5.865192
1856.000000	5.863341
1854.000000	5.861243
1852.000000	5.859155
1850.000000	5.856191
1848.000000	5.849143
1846.000000	5.828304
1844.000000	5.797977
1842.000000	5.810554
1840.000000	5.838045
1838.000000	5.839702
1836.000000	5.834461
1834.000000	5.831414
1832.000000	5.821472
1830.000000	5.798041
1828.000000	5.794618
1826.000000	5.797097
1824.000000	5.793679
1822.000000	5.803376
1820.000000	5.806479
1818.000000	5.801442
1816.000000	5.796480
1814.000000	5.792685
1812.000000	5.782089
1810.000000	5.772761
1808.000000	5.772425
1806.000000	5.771699
1804.000000	5.762023
1802.000000	5.745280
1800.000000	5.731668
1798.000000	5.731917
1796.000000	5.732668
1794.000000	5.707569
1792.000000	5.673074
1790.000000	5.685115
1788.000000	5.708921
1786.000000	5.702227
1784.000000	5.688523
1782.000000	5.683928
1780.000000	5.677408
1778.000000	5.676013
1776.000000	5.666183
1774.000000	5.624688
1772.000000	5.578859
1770.000000	5.593480
1768.000000	5.613964
1766.000000	5.627194
1764.000000	5.631036
1762.000000	5.604348
1760.000000	5.599233
1758.000000	5.603017
1756.000000	5.590881
1754.000000	5.585649
1752.000000	5.548946
1750.000000	5.516533
1748.000000	5.527961
1746.000000	5.539424
1744.000000	5.534881
1742.000000	5.517409
1740.000000	5.491727
1738.000000	5.487745
1736.000000	5.460304
1734.000000	5.379797
1732.000000	5.399577
1730.000000	5.468376
1728.000000	5.490033
1726.000000	5.494509
1724.000000	5.488583
1722.000000	5.481051
1720.000000	5.447299
1718.000000	5.365192
1716.000000	5.341293
1714.000000	5.396622
1712.000000	5.436653
1710.000000	5.444207
1708.000000	5.427233
1706.000000	5.400469
1704.000000	5.385306
1702.000000	5.340910
1700.000000	5.258160
1698.000000	5.269412
1696.000000	5.266952
1694.000000	5.301791
1692.000000	5.382815
1690.000000	5.392277
1688.000000	5.375051
1686.000000	5.299015
1684.000000	5.217058
1682.000000	5.277604
1680.000000	5.353805
1678.000000	5.360763
1676.000000	5.323339
1674.000000	5.302349
1672.000000	5.317516
1670.000000	5.293025
1668.000000	5.290295
1666.000000	5.321941
1664.000000	5.315014
1662.000000	5.292805
1660.000000	5.306545
1658.000000	5.312424
1656.000000	5.266486
1654.000000	5.121508
1652.000000	5.055955
1650.000000	5.174425
1648.000000	5.212116
1646.000000	5.173189
1644.000000	5.203598
1642.000000	5.245303
1640.000000	5.239458
1638.000000	5.199443
1636.000000	5.124713
1634.000000	5.119751
1632.000000	5.180209
1630.000000	5.190436
1628.000000	5.165148
1626.000000	5.141573
1624.000000	5.106586
1622.000000	5.080253
1620.000000	5.073042
1618.000000	5.012513
1616.000000	4.951995
1614.000000	4.974381
1612.000000	4.979931
1610.000000	4.941844
1608.000000	4.914966
1606.000000	4.910988
1604.000000	4.920596
1602.000000	4.932434
1600.000000	4.946413
1598.000000	4.957976
1596.000000	4.966813
1594.000000	4.973137
1592.000000	4.979071
1590.000000	4.980748
1588.000000	4.979224
1586.000000	4.976049
1584.000000	4.972730
1582.000000	4.968077
1580.000000	4.962542
1578.000000	4.920997
1576.000000	4.856140
1574.000000	4.887175
1572.000000	4.933087
1570.000000	4.904733
1568.000000	4.898666
1566.000000	4.912347
1564.000000	4.902430
1562.000000	4.850159
1560.000000	4.719577
1558.000000	4.665931
1556.000000	4.756858
1554.000000	4.820821
1552.000000	4.860426
1550.000000	4.885863
1548.000000	4.897976
1546.000000	4.892776
1544.000000	4.866646
1542.000000	4.820517
1540.000000	4.769800
1538.000000	4.818754
1536.000000	4.924069
1534.000000	4.939431
1532.000000	4.947234
1530.000000	4.977048
1528.000000	4.972772
1526.000000	4.949872
1524.000000	4.931748
1522.000000	4.885816
1520.000000	4.871228
1518.000000	4.905050
1516.000000	4.912421
1514.000000	4.917623
1512.000000	4.909641
1510.000000	4.885195
1508.000000	4.803714
1506.000000	4.724770
1504.000000	4.757837
1502.000000	4.770077
1500.000000	4.656609
1498.000000	4.468916
1496.000000	4.297775
1494.000000	4.251794
1492.000000	4.301404
1490.000000	4.383204
1488.000000	4.492212
1486.000000	4.595796
1484.000000	4.669863
1482.000000	4.707595
1480.000000	4.724867
1478.000000	4.725374
1476.000000	4.702026
1474.000000	4.660772
1472.000000	4.634568
1470.000000	4.661460
1468.000000	4.675308
1466.000000	4.640363
1464.000000	4.608565
1462.000000	4.604122
1460.000000	4.562053
1458.000000	4.449593
1456.000000	4.366820
1454.000000	4.372928
1452.000000	4.363723
1450.000000	4.353718
1448.000000	4.385810
1446.000000	4.445199
1444.000000	4.487285
1442.000000	4.498592
1440.000000	4.494923
1438.000000	4.465776
1436.000000	4.444241
1434.000000	4.479891
1432.000000	4.501242
1430.000000	4.496070
1428.000000	4.498110
1426.000000	4.502150
1424.000000	4.495108
1422.000000	4.482639
1420.000000	4.440904
1418.000000	4.423503
1416.000000	4.450812
1414.000000	4.457372
1412.000000	4.442009
1410.000000	4.415715
1408.000000	4.377360
1406.000000	4.327547
1404.000000	4.292131
1402.000000	4.289479
1400.000000	4.296614
1398.000000	4.314083
1396.000000	4.336588
1394.000000	4.352774
1392.000000	4.380126
1390.000000	4.389419
1388.000000	4.368674
1386.000000	4.351484
1384.000000	4.351312
1382.000000	4.357060
1380.000000	4.363889
1378.000000	4.361810
1376.000000	4.352206
1374.000000	4.339385
1372.000000	4.339930
1370.000000	4.340056
1368.000000	4.331775
1366.000000	4.324310
1364.000000	4.310396
1362.000000	4.294868
1360.000000	4.292434
1358.000000	4.290614
1356.000000	4.282154
1354.000000	4.270025
1352.000000	4.258629
1350.000000	4.247280
1348.000000	4.236250
1346.000000	4.223639
1344.000000	4.210019
1342.000000	4.194630
1340.000000	4.177257
1338.000000	4.166865
1336.000000	4.164915
1334.000000	4.162509
1332.000000	4.155292
1330.000000	4.144657
1328.000000	4.133911
1326.000000	4.120124
1324.000000	4.105385
1322.000000	4.091408
1320.000000	4.075661
1318.000000	4.058709
1316.000000	4.043268
1314.000000	4.026185
1312.000000	4.008427
1310.000000	3.991441
1308.000000	3.975327
1306.000000	3.957245
1304.000000	3.938599
1302.000000	3.919719
1300.000000	3.900333
1298.000000	3.880326
1296.000000	3.861453
1294.000000	3.842097
1292.000000	3.820921
1290.000000	3.798301
1288.000000	3.774729
1286.000000	3.751042
1284.000000	3.727406
1282.000000	3.703356
1280.000000	3.677431
1278.000000	3.649101
1276.000000	3.618254
1274.000000	3.583466
1272.000000	3.542069
1270.000000	3.490331
1268.000000	3.424092
1266.000000	3.340274
1264.000000	3.246746
1262.000000	3.164384
1260.000000	3.117732
1258.000000	3.114009
1256.000000	3.137661
1254.000000	3.165674
1252.000000	3.179548
1250.000000	3.173489
1248.000000	3.154744
1246.000000	3.129654
1244.000000	3.100797
1242.000000	3.069752
1240.000000	3.038999
1238.000000	3.009682
1236.000000	2.982041
1234.000000	2.955095
1232.000000	2.927434
1230.000000	2.899531
1228.000000	2.871455
1226.000000	2.843827
1224.000000	2.817975
1222.000000	2.791518
1220.000000	2.762597
1218.000000	2.731913
1216.000000	2.701040
1214.000000	2.670817
1212.000000	2.641570
1210.000000	2.614241
1208.000000	2.589716
1206.000000	2.565043
1204.000000	2.540851
1202.000000	2.517090
1200.000000	2.494305
1198.000000	2.471552
1196.000000	2.448106
1194.000000	2.423570
1192.000000	2.398735
1190.000000	2.372459
1188.000000	2.345610
1186.000000	2.318007
1184.000000	2.286695
1182.000000	2.246656
1180.000000	2.209320
1178.000000	2.190499
1176.000000	2.177931
1174.000000	2.157213
1172.000000	2.131645
1170.000000	2.105417
1168.000000	2.078773
1166.000000	2.051339
1164.000000	2.024602
1162.000000	1.997215
1160.000000	1.969429
1158.000000	1.943260
1156.000000	1.919809
1154.000000	1.896524
1152.000000	1.871205
1150.000000	1.845659
1148.000000	1.821617
1146.000000	1.797472
1144.000000	1.772320
1142.000000	1.748540
1140.000000	1.730413
1138.000000	1.713154
1136.000000	1.693294
1134.000000	1.670619
1132.000000	1.647148
1130.000000	1.624091
1128.000000	1.601902
1126.000000	1.578678
1124.000000	1.553525
1122.000000	1.528548
1120.000000	1.504693
1118.000000	1.479285
1116.000000	1.452552
1114.000000	1.424342
1112.000000	1.398189
1110.000000	1.373213
1108.000000	1.346350
1106.000000	1.320381
1104.000000	1.297537
1102.000000	1.275054
1100.000000	1.252073
1098.000000	1.229330
1096.000000	1.207957
1094.000000	1.188013
1092.000000	1.167821
1090.000000	1.146397
1088.000000	1.127462
1086.000000	1.110258
1084.000000	1.092863
1082.000000	1.075167
1080.000000	1.058254
1078.000000	1.043176
1076.000000	1.029126
1074.000000	1.016279
1072.000000	1.005052
1070.000000	0.994449
1068.000000	0.983641
1066.000000	0.972030
1064.000000	0.960179
1062.000000	0.948402
1060.000000	0.936450
1058.000000	0.922051
1056.000000	0.903848
1054.000000	0.878881
1052.000000	0.852189
1050.000000	0.834309
1048.000000	0.830140
1046.000000	0.834349
1044.000000	0.837622
1042.000000	0.833917
1040.000000	0.825855
1038.000000	0.815323
1036.000000	0.803292
1034.000000	0.790579
1032.000000	0.777957
1030.000000	0.764547
1028.000000	0.750538
1026.000000	0.736277
1024.000000	0.721999
1022.000000	0.708689
1020.000000	0.696229
1018.000000	0.684085
1016.000000	0.673500
1014.000000	0.664337
1012.000000	0.657433
1010.000000	0.651326
1008.000000	0.645029
1006.000000	0.637823
1004.000000	0.629907
1002.000000	0.621066
1000.000000	0.610105
